File: data_backup/16.6mm-091419/byto000sA1r1-16mm-091519.csv
#EXPORTTYPE:           ,DATA ALL
#FILE:                 ,bytownA1r1.ngb-sle
#FORMAT:               ,NETZSCH5
#FTYPE:                ,ANSI
#IDENTITY:             ,bytownite#3
#DECIMAL:              ,POINT
#SEPARATOR:            ,COMMA
#MTYPE:                ,DIL
#INSTRUMENT:           ,NETZSCH DIL 402C
#PROJECT:              ,feldspar
#DATE/TIME:            ,9/15/2019 9:30:55 AM (UTC-5)
#CORR. FILE:           ,
#TEMPCAL:              ,TCALZERO.TMX
#LABORATORY:           ,Mineral Physics
#OPERATOR:             ,PAG
#REMARK:               ,bare, norm start, for bytown and rocks , long stnd, thin, should be 100* hope tc holds up
#SAMPLE:               ,bytownite-A
#SAMPLE LENGTH /mm:    ,16.048
#MATERIAL:             ,sapphire stnd
#MEASMODE:             ,Standard Expansion
#PURGE GAS 1:          ,ARGON
#FLOW RATE 1 /(ml/min):,75
#M.RANGE /µm:          ,500
#CORR. CODE:           ,010
#RANGE:                ,20.0°C/3.0(K/min)/1200.0°C
#SEGMENT:              ,S1/1
#SEG. 1:               ,20.0°C/3.0(K/min)/1200.0°C

##Temp./°C,Time/min,dL/Lo
 20.09500,  0.00000, 4.9400e-006
 20.12500,  0.84500, 7.4130e-006
 20.11500,  1.69000, 6.6017e-006
 20.13000,  2.53500, 4.8160e-006
 20.46500,  3.38000, 8.0479e-007
 21.77900,  4.22500,-7.6167e-006
 24.35200,  5.07000,-1.4582e-005
 27.88100,  5.91500,-1.1696e-005
 31.92400,  6.76000, 2.7785e-006
 36.09800,  7.60500, 2.7850e-005
 40.24700,  8.45000, 5.8611e-005
 44.47700,  9.29500, 9.3571e-005
 48.81400, 10.14000, 1.3130e-004
 53.27000, 10.98500, 1.7216e-004
 57.80800, 11.83000, 2.1675e-004
 62.36700, 12.67500, 2.6455e-004
 66.92000, 13.52000, 3.1506e-004
 71.43500, 14.36500, 3.6749e-004
 75.93100, 15.21000, 4.2085e-004
 80.38900, 16.05500, 4.7512e-004
 84.83200, 16.90000, 5.2988e-004
 89.20800, 17.74500, 5.8518e-004
 93.55600, 18.59000, 6.4105e-004
 97.85700, 19.43500, 6.9699e-004
102.117, 20.28000, 7.5316e-004
106.345, 21.12500, 8.0943e-004
110.534, 21.97000, 8.6504e-004
114.699, 22.81500, 9.2030e-004
118.851, 23.66000, 9.7611e-004
122.976, 24.50500, 1.0310e-003
127.067, 25.35000, 1.0863e-003
131.135, 26.19500, 1.1408e-003
135.186, 27.04000, 1.1956e-003
139.208, 27.88500, 1.2498e-003
143.209, 28.73000, 1.3040e-003
147.209, 29.57500, 1.3581e-003
151.173, 30.42000, 1.4121e-003
155.101, 31.26500, 1.4656e-003
159.032, 32.11000, 1.5190e-003
162.934, 32.95500, 1.5721e-003
166.81, 33.80000, 1.6249e-003
170.681, 34.64500, 1.6777e-003
174.547, 35.49000, 1.7308e-003
178.37, 36.33500, 1.7833e-003
182.159, 37.18000, 1.8354e-003
185.946, 38.02500, 1.8873e-003
189.73, 38.87000, 1.9395e-003
193.495, 39.71500, 1.9911e-003
197.241, 40.56000, 2.0425e-003
200.96, 41.40500, 2.0937e-003
204.669, 42.25000, 2.1449e-003
208.34, 43.09500, 2.1954e-003
212.014, 43.94000, 2.2456e-003
215.657, 44.78500, 2.2958e-003
219.299, 45.63000, 2.3461e-003
222.93, 46.47500, 2.3961e-003
226.505, 47.32000, 2.4453e-003
230.08, 48.16500, 2.4951e-003
233.65, 49.01000, 2.5442e-003
237.195, 49.85500, 2.5934e-003
240.728, 50.70000, 2.6420e-003
244.235, 51.54500, 2.6909e-003
247.736, 52.39000, 2.7391e-003
251.214, 53.23500, 2.7876e-003
254.662, 54.08000, 2.8351e-003
258.108, 54.92500, 2.8827e-003
261.546, 55.77000, 2.9305e-003
264.973, 56.61500, 2.9778e-003
268.375, 57.46000, 3.0250e-003
271.767, 58.30500, 3.0713e-003
275.137, 59.15000, 3.1178e-003
278.479, 59.99500, 3.1641e-003
281.819, 60.84000, 3.2104e-003
285.16, 61.68500, 3.2566e-003
288.468, 62.53000, 3.3023e-003
291.745, 63.37500, 3.3475e-003
295.022, 64.22000, 3.3930e-003
298.295, 65.06500, 3.4385e-003
301.546, 65.91000, 3.4833e-003
304.777, 66.75500, 3.5278e-003
307.995, 67.60000, 3.5725e-003
311.201, 68.44500, 3.6167e-003
314.398, 69.29000, 3.6613e-003
317.57, 70.13500, 3.7047e-003
320.744, 70.98000, 3.7489e-003
323.876, 71.82500, 3.7921e-003
327.029, 72.67000, 3.8357e-003
330.165, 73.51500, 3.8793e-003
333.27, 74.36000, 3.9220e-003
336.37, 75.20500, 3.9644e-003
339.468, 76.05000, 4.0073e-003
342.553, 76.89500, 4.0501e-003
345.619, 77.74000, 4.0924e-003
348.676, 78.58500, 4.1346e-003
351.714, 79.43000, 4.1763e-003
354.73, 80.27500, 4.2183e-003
357.762, 81.12000, 4.2599e-003
360.751, 81.96500, 4.3014e-003
363.763, 82.81000, 4.3428e-003
366.744, 83.65500, 4.3839e-003
369.717, 84.50000, 4.4251e-003
372.682, 85.34500, 4.4665e-003
375.643, 86.19000, 4.5071e-003
378.598, 87.03500, 4.5482e-003
381.528, 87.88000, 4.5887e-003
384.446, 88.72500, 4.6292e-003
387.343, 89.57000, 4.6693e-003
390.252, 90.41500, 4.7098e-003
393.147, 91.26000, 4.7499e-003
396.031, 92.10500, 4.7898e-003
398.914, 92.95000, 4.8295e-003
401.785, 93.79500, 4.8693e-003
404.641, 94.64000, 4.9088e-003
407.492, 95.48500, 4.9482e-003
410.333, 96.33000, 4.9870e-003
413.164, 97.17500, 5.0263e-003
415.972, 98.02000, 5.0650e-003
418.787, 98.86500, 5.1049e-003
421.589, 99.71000, 5.1440e-003
424.368,100.555, 5.1841e-003
427.111,101.4, 5.2235e-003
429.84,102.245, 5.2623e-003
432.627,103.09, 5.2997e-003
435.48,103.935, 5.3376e-003
438.366,104.78, 5.3751e-003
441.252,105.625, 5.4144e-003
444.111,106.47, 5.4542e-003
446.931,107.315, 5.4928e-003
449.722,108.16, 5.5316e-003
452.51,109.005, 5.5705e-003
455.248,109.85, 5.6085e-003
457.979,110.695, 5.6468e-003
460.683,111.54, 5.6841e-003
463.361,112.385, 5.7221e-003
466.034,113.23, 5.7587e-003
468.701,114.075, 5.7961e-003
471.35,114.92, 5.8325e-003
473.99,115.765, 5.8698e-003
476.637,116.61, 5.9072e-003
479.257,117.455, 5.9449e-003
481.852,118.3, 5.9826e-003
484.41,119.145, 6.0203e-003
486.97,119.99, 6.0566e-003
489.579,120.835, 6.0918e-003
492.244,121.68, 6.1272e-003
494.941,122.525, 6.1637e-003
497.644,123.37, 6.2008e-003
500.301,124.215, 6.2378e-003
502.946,125.06, 6.2743e-003
505.58,125.905, 6.3109e-003
508.192,126.75, 6.3470e-003
510.792,127.595, 6.3840e-003
513.358,128.44, 6.4196e-003
515.913,129.285, 6.4545e-003
518.454,130.13, 6.4906e-003
520.982,130.975, 6.5257e-003
523.497,131.82, 6.5604e-003
526.026,132.665, 6.5964e-003
528.537,133.51, 6.6320e-003
531.042,134.355, 6.6675e-003
533.542,135.2, 6.7029e-003
536.035,136.045, 6.7395e-003
538.532,136.89, 6.7729e-003
541.013,137.735, 6.8085e-003
543.485,138.58, 6.8435e-003
545.954,139.425, 6.8789e-003
548.421,140.27, 6.9137e-003
550.894,141.115, 6.9487e-003
553.374,141.96, 6.9835e-003
555.851,142.805, 7.0185e-003
558.312,143.65, 7.0530e-003
560.762,144.495, 7.0880e-003
563.211,145.34, 7.1220e-003
565.672,146.185, 7.1568e-003
568.121,147.03, 7.1909e-003
570.576,147.875, 7.2265e-003
573.005,148.72, 7.2610e-003
575.435,149.565, 7.2956e-003
577.859,150.41, 7.3302e-003
580.282,151.255, 7.3644e-003
582.708,152.1, 7.3990e-003
585.123,152.945, 7.4338e-003
587.527,153.79, 7.4684e-003
589.939,154.635, 7.5028e-003
592.341,155.48, 7.5374e-003
594.747,156.325, 7.5720e-003
597.141,157.17, 7.6075e-003
599.503,158.015, 7.6428e-003
601.835,158.86, 7.6776e-003
604.173,159.705, 7.7127e-003
606.53,160.55, 7.7463e-003
608.941,161.395, 7.7793e-003
611.406,162.24, 7.8138e-003
613.879,163.085, 7.8488e-003
616.333,163.93, 7.8844e-003
618.764,164.775, 7.9192e-003
621.184,165.62, 7.9534e-003
623.585,166.465, 7.9889e-003
625.961,167.31, 8.0234e-003
628.326,168.155, 8.0578e-003
630.685,169, 8.0921e-003
633.023,169.845, 8.1256e-003
635.373,170.69, 8.1598e-003
637.709,171.535, 8.1938e-003
640.046,172.38, 8.2280e-003
642.375,173.225, 8.2619e-003
644.7,174.07, 8.2961e-003
647.034,174.915, 8.3298e-003
649.35,175.76, 8.3635e-003
651.655,176.605, 8.3975e-003
653.97,177.45, 8.4315e-003
656.273,178.295, 8.4651e-003
658.567,179.14, 8.4986e-003
660.863,179.985, 8.5322e-003
663.166,180.83, 8.5649e-003
665.457,181.675, 8.5986e-003
667.728,182.52, 8.6314e-003
670.03,183.365, 8.6642e-003
672.306,184.21, 8.6971e-003
674.588,185.055, 8.7306e-003
676.863,185.9, 8.7632e-003
679.119,186.745, 8.7978e-003
681.322,187.59, 8.8313e-003
683.508,188.435, 8.8635e-003
685.728,189.28, 8.8954e-003
687.972,190.125, 8.9271e-003
690.273,190.97, 8.9595e-003
692.548,191.815, 8.9923e-003
694.841,192.66, 9.0253e-003
697.12,193.505, 9.0575e-003
699.373,194.35, 9.0905e-003
701.621,195.195, 9.1226e-003
703.871,196.04, 9.1550e-003
706.106,196.885, 9.1878e-003
708.345,197.73, 9.2192e-003
710.569,198.575, 9.2516e-003
712.817,199.42, 9.2840e-003
715.039,200.265, 9.3163e-003
717.254,201.11, 9.3482e-003
719.469,201.955, 9.3805e-003
721.695,202.8, 9.4117e-003
723.917,203.645, 9.4440e-003
726.127,204.49, 9.4765e-003
728.328,205.335, 9.5088e-003
730.533,206.18, 9.5403e-003
732.728,207.025, 9.5725e-003
734.924,207.87, 9.6039e-003
737.122,208.715, 9.6366e-003
738.251,209.56, 9.6591e-003
740.867,210.405, 9.6942e-003
743.237,211.25, 9.7278e-003
745.513,212.095, 9.7611e-003
747.872,212.94, 9.7951e-003
750.048,213.785, 9.8280e-003
752.227,214.63, 9.8606e-003
754.167,215.475, 9.8899e-003
756.301,216.32, 9.9211e-003
758.17,217.165, 9.9491e-003
760.281,218.01, 9.9804e-003
762.904,218.855, 1.0016e-002
765.655,219.7, 1.0052e-002
767.177,220.545, 1.0079e-002
768.359,221.39, 1.0102e-002
769.866,222.235, 1.0127e-002
772.163,223.08, 1.0160e-002
774.345,223.925, 1.0192e-002
777.152,224.77, 1.0229e-002
778.344,225.615, 1.0252e-002
780.55,226.46, 1.0284e-002
782.052,227.305, 1.0311e-002
785.655,228.15, 1.0355e-002
787.029,228.995, 1.0378e-002
786.412,229.84, 1.0386e-002
792.218,230.685, 1.0449e-002
794.239,231.53, 1.0480e-002
796.078,232.375, 1.0509e-002
799.013,233.22, 1.0548e-002
801.085,234.065, 1.0579e-002
802.974,234.91, 1.0608e-002
805.176,235.755, 1.0638e-002
807.181,236.6, 1.0669e-002
809.274,237.445, 1.0699e-002
811.075,238.29, 1.0727e-002
813.183,239.135, 1.0757e-002
814.522,239.98, 1.0781e-002
817.173,240.825, 1.0816e-002
819.373,241.67, 1.0846e-002
821.55,242.515, 1.0878e-002
823.666,243.36, 1.0910e-002
825.851,244.205, 1.0941e-002
828.151,245.05, 1.0973e-002
830.212,245.895, 1.1005e-002
832.326,246.74, 1.1036e-002
834.46,247.585, 1.1067e-002
836.165,248.43, 1.1095e-002
837.696,249.275, 1.1121e-002
838.412,250.12, 1.1139e-002
842.221,250.965, 1.1184e-002
842.639,251.81, 1.1201e-002
812.369,251.983, 1.0943e-002