File: data_backup/16.6mm-091419/sanMtT0p2s1r16mm-111418.csv
#EXPORTTYPE:           ,DATA ALL
#FILE:                 ,sanidMt2P1run1.ngb-sle
#FORMAT:               ,NETZSCH5
#FTYPE:                ,ANSI
#IDENTITY:             ,mt t perp
#DECIMAL:              ,POINT
#SEPARATOR:            ,COMMA
#MTYPE:                ,DIL
#INSTRUMENT:           ,NETZSCH DIL 402C
#PROJECT:              ,morb
#DATE/TIME:            ,11/14/2018 10:12:25 AM (UTC-6)
#CORR. FILE:           ,
#TEMPCAL:              ,TCALZERO.TMX
#LABORATORY:           ,min phys
#OPERATOR:             ,amh
#REMARK:               ,bare, norm start, calib run
#SAMPLE:               ,mt t ortho010
#SAMPLE LENGTH /mm:    ,6.063
#MATERIAL:             ,sapphire stnd
#MEASMODE:             ,Standard Expansion
#PURGE GAS 1:          ,ARGON
#FLOW RATE 1 /(ml/min):,75
#M.RANGE /µm:          ,500
#CORR. CODE:           ,010
#RANGE:                ,20.0°C/3.0(K/min)/950.0°C
#SEGMENT:              ,S1/1
#SEG. 1:               ,20.0°C/3.0(K/min)/950.0°C

##Temp./°C,Time/min,dL/Lo
 21.91400, 0.00000, 1.7930e-005
 21.92500, 0.08667, 1.8215e-005
 21.93300, 0.17333, 1.9138e-005
 21.93700, 0.26000, 1.9888e-005
 21.94300, 0.34667, 2.0694e-005
 21.94300, 0.43333, 2.0818e-005
 21.95000, 0.52000, 2.1651e-005
 21.95200, 0.60667, 2.1995e-005
 21.94900, 0.69333, 2.2592e-005
 21.95400, 0.78000, 2.2628e-005
 21.93800, 0.86667, 2.1978e-005
 21.93400, 0.95333, 2.2341e-005
 21.93300, 1.04000, 2.1344e-005
 21.93900, 1.12667, 2.1861e-005
 21.93500, 1.21333, 2.1255e-005
 21.93500, 1.30000, 2.0699e-005
 21.93600, 1.38667, 2.0541e-005
 21.93400, 1.47333, 2.0485e-005
 21.93100, 1.56000, 1.9784e-005
 21.93600, 1.64667, 1.9283e-005
 21.93300, 1.73333, 1.9221e-005
 21.93000, 1.82000, 1.8498e-005
 21.92900, 1.90667, 1.7687e-005
 21.92200, 1.99333, 1.6647e-005
 21.91400, 2.08000, 1.6570e-005
 21.91200, 2.16667, 1.6349e-005
 21.91400, 2.25333, 1.5642e-005
 21.91000, 2.34000, 1.4995e-005
 21.91400, 2.42667, 1.4405e-005
 21.91600, 2.51333, 1.3821e-005
 21.92000, 2.60000, 1.3520e-005
 21.91600, 2.68667, 1.2461e-005
 21.91900, 2.77333, 1.2338e-005
 21.92200, 2.86000, 1.2400e-005
 21.92000, 2.94667, 1.1170e-005
 21.92100, 3.03333, 1.0764e-005
 21.91900, 3.12000, 1.0358e-005
 21.92900, 3.20667, 9.6258e-006
 21.93200, 3.29333, 7.9567e-006
 21.94300, 3.38000, 7.0457e-006
 21.96500, 3.46667, 6.2339e-006
 21.98500, 3.55333, 5.0367e-006
 22.02500, 3.64000, 3.0134e-006
 22.06700, 3.72667, 1.1487e-006
 22.11800, 3.81333,-1.4556e-006
 22.17900, 3.90000,-3.2670e-006
 22.24300, 3.98667,-6.5207e-006
 22.32100, 4.07333,-9.4475e-006
 22.42000, 4.16000,-1.2657e-005
 22.52900, 4.24667,-1.6476e-005
 22.64300, 4.33333,-2.0258e-005
 22.77800, 4.42000,-2.4901e-005
 22.92000, 4.50667,-2.9576e-005
 23.07100, 4.59333,-3.5341e-005
 23.24500, 4.68000,-4.0406e-005
 23.43400, 4.76667,-4.6703e-005
 23.63000, 4.85333,-5.2435e-005
 23.84400, 4.94000,-5.9027e-005
 24.07000, 5.02667,-6.5183e-005
 24.30900, 5.11333,-7.1225e-005
 24.57800, 5.20000,-7.7795e-005
 24.83500, 5.28667,-8.4037e-005
 25.11400, 5.37333,-9.1359e-005
 25.40000, 5.46000,-9.8486e-005
 25.71300, 5.54667,-1.0455e-004
 26.02600, 5.63333,-1.1138e-004
 26.34600, 5.72000,-1.1843e-004
 26.68700, 5.80667,-1.2456e-004
 27.02800, 5.89333,-1.3175e-004
 27.39100, 5.98000,-1.3811e-004
 27.74700, 6.06667,-1.4494e-004
 28.11000, 6.15333,-1.5114e-004
 28.48000, 6.24000,-1.5643e-004
 28.87500, 6.32667,-1.6254e-004
 29.24600, 6.41333,-1.6817e-004
 29.65100, 6.50000,-1.7425e-004
 30.04000, 6.58667,-1.7937e-004
 30.44800, 6.67333,-1.8461e-004
 30.86600, 6.76000,-1.8843e-004
 31.27400, 6.84667,-1.9257e-004
 31.68200, 6.93333,-1.9758e-004
 32.10400, 7.02000,-2.0083e-004
 32.51800, 7.10667,-2.0416e-004
 32.94300, 7.19333,-2.0746e-004
 33.36400, 7.28000,-2.1119e-004
 33.77900, 7.36667,-2.1454e-004
 34.19000, 7.45333,-2.1694e-004
 34.61300, 7.54000,-2.1969e-004
 35.03200, 7.62667,-2.2197e-004
 35.46200, 7.71333,-2.2286e-004
 35.87900, 7.80000,-2.2505e-004
 36.30600, 7.88667,-2.2684e-004
 36.73300, 7.97333,-2.2779e-004
 37.15300, 8.06000,-2.2916e-004
 37.57300, 8.14667,-2.3009e-004
 37.99600, 8.23333,-2.3114e-004
 38.40100, 8.32000,-2.3183e-004
 38.82500, 8.40667,-2.3311e-004
 39.24200, 8.49333,-2.3317e-004
 39.66400, 8.58000,-2.3265e-004
 40.08600, 8.66667,-2.3276e-004
 40.51000, 8.75333,-2.3329e-004
 40.92300, 8.84000,-2.3241e-004
 41.34300, 8.92667,-2.3210e-004
 41.77200, 9.01333,-2.3272e-004
 42.19500, 9.10000,-2.3216e-004
 42.61700, 9.18667,-2.3231e-004
 43.03800, 9.27333,-2.3082e-004
 43.47500, 9.36000,-2.2973e-004
 43.90300, 9.44667,-2.2883e-004
 44.33800, 9.53333,-2.2884e-004
 44.75900, 9.62000,-2.2768e-004
 45.19900, 9.70667,-2.2599e-004
 45.63100, 9.79333,-2.2565e-004
 46.05900, 9.88000,-2.2470e-004
 46.50400, 9.96667,-2.2293e-004
 46.93500,10.05333,-2.2174e-004
 47.36600,10.14000,-2.2118e-004
 47.80600,10.22667,-2.1978e-004
 48.23600,10.31333,-2.1861e-004
 48.69600,10.40000,-2.1743e-004
 49.13900,10.48667,-2.1602e-004
 49.58200,10.57333,-2.1406e-004
 50.02300,10.66000,-2.1359e-004
 50.47000,10.74667,-2.1201e-004
 50.91100,10.83333,-2.1054e-004
 51.35500,10.92000,-2.0875e-004
 51.81100,11.00667,-2.0714e-004
 52.25900,11.09333,-2.0617e-004
 52.70200,11.18000,-2.0497e-004
 53.15900,11.26667,-2.0214e-004
 53.60600,11.35333,-2.0099e-004
 54.07200,11.44000,-1.9804e-004
 54.52000,11.52667,-1.9686e-004
 54.98500,11.61333,-1.9447e-004
 55.44300,11.70000,-1.9165e-004
 55.89800,11.78667,-1.8929e-004
 56.36300,11.87333,-1.8712e-004
 56.82500,11.96000,-1.8541e-004
 57.28400,12.04667,-1.8277e-004
 57.74800,12.13333,-1.8014e-004
 58.21100,12.22000,-1.7817e-004
 58.67000,12.30667,-1.7530e-004
 59.13000,12.39333,-1.7323e-004
 59.60100,12.48000,-1.6962e-004
 60.06200,12.56667,-1.6655e-004
 60.52800,12.65333,-1.6454e-004
 60.98300,12.74000,-1.6170e-004
 61.44200,12.82667,-1.5850e-004
 61.89300,12.91333,-1.5487e-004
 62.35800,13.00000,-1.5222e-004
 62.83400,13.08667,-1.4882e-004
 63.28600,13.17333,-1.4476e-004
 63.75400,13.26000,-1.4183e-004
 64.21600,13.34667,-1.3801e-004
 64.69000,13.43333,-1.3449e-004
 65.14800,13.52000,-1.3177e-004
 65.61200,13.60667,-1.2763e-004
 66.07300,13.69333,-1.2419e-004
 66.53600,13.78000,-1.1947e-004
 66.99900,13.86667,-1.1552e-004
 67.46300,13.95333,-1.1177e-004
 67.92300,14.04000,-1.0792e-004
 68.38000,14.12667,-1.0399e-004
 68.84400,14.21333,-9.9984e-005
 69.30900,14.30000,-9.5253e-005
 69.76200,14.38667,-9.2114e-005
 70.22900,14.47333,-8.8068e-005
 70.68700,14.56000,-8.3655e-005
 71.13900,14.64667,-7.9614e-005
 71.60000,14.73333,-7.5323e-005
 72.05400,14.82000,-7.1514e-005
 72.51500,14.90667,-6.6789e-005
 72.97800,14.99333,-6.2358e-005
 73.43600,15.08000,-5.8272e-005
 73.90100,15.16667,-5.3146e-005
 74.35400,15.25333,-4.9652e-005
 74.81400,15.34000,-4.4953e-005
 75.26600,15.42667,-4.0208e-005
 75.72600,15.51333,-3.6106e-005
 76.17800,15.60000,-3.1628e-005
 76.64100,15.68667,-2.7030e-005
 77.09200,15.77333,-2.1590e-005
 77.55000,15.86000,-1.7480e-005
 77.99800,15.94667,-1.1978e-005
 78.45700,16.03333,-7.8194e-006
 78.90300,16.12000,-3.3421e-006
 79.36200,16.20667, 2.1372e-006
 79.82700,16.29333, 5.8461e-006
 80.27600,16.38000, 1.1171e-005
 80.72700,16.46667, 1.5975e-005
 81.17500,16.55333, 2.0303e-005
 81.62500,16.64000, 2.5183e-005
 82.07400,16.72667, 2.9932e-005
 82.52200,16.81333, 3.4839e-005
 82.96900,16.90000, 3.9162e-005
 83.42400,16.98667, 4.4966e-005
 83.87500,17.07333, 4.9978e-005
 84.32500,17.16000, 5.4551e-005
 84.77600,17.24667, 5.9997e-005
 85.22300,17.33333, 6.4012e-005
 85.66600,17.42000, 6.9339e-005
 86.11600,17.50667, 7.4139e-005
 86.56600,17.59333, 7.9456e-005
 87.00800,17.68000, 8.5023e-005
 87.44300,17.76667, 8.9427e-005
 87.89300,17.85333, 9.4600e-005
 88.34600,17.94000, 9.9465e-005
 88.79400,18.02667, 1.0498e-004
 89.22800,18.11333, 1.1030e-004
 89.68200,18.20000, 1.1623e-004
 90.12000,18.28667, 1.2047e-004
 90.56000,18.37333, 1.2489e-004
 91.00100,18.46000, 1.2967e-004
 91.44500,18.54667, 1.3565e-004
 91.88300,18.63333, 1.4121e-004
 92.32700,18.72000, 1.4609e-004
 92.77200,18.80667, 1.5210e-004
 93.20800,18.89333, 1.5751e-004
 93.65900,18.98000, 1.6244e-004
 94.09500,19.06667, 1.6737e-004
 94.53200,19.15333, 1.7219e-004
 94.97700,19.24000, 1.7818e-004
 95.41100,19.32667, 1.8338e-004
 95.86300,19.41333, 1.8897e-004
 96.29700,19.50000, 1.9384e-004
 96.73400,19.58667, 1.9955e-004
 97.17400,19.67333, 2.0560e-004
 97.60700,19.76000, 2.1082e-004
 98.04200,19.84667, 2.1567e-004
 98.48400,19.93333, 2.2099e-004
 98.91200,20.02000, 2.2643e-004
 99.34900,20.10667, 2.3166e-004
 99.78600,20.19333, 2.3734e-004
100.214,20.28000, 2.4210e-004
100.645,20.36667, 2.4774e-004
101.077,20.45333, 2.5273e-004
101.501,20.54000, 2.5844e-004
101.936,20.62667, 2.6401e-004
102.375,20.71333, 2.6973e-004
102.807,20.80000, 2.7478e-004
103.245,20.88667, 2.7994e-004
103.67,20.97333, 2.8537e-004
104.1,21.06000, 2.9103e-004
104.545,21.14667, 2.9581e-004
104.973,21.23333, 3.0174e-004
105.398,21.32000, 3.0695e-004
105.826,21.40667, 3.1210e-004
106.244,21.49333, 3.1816e-004
106.667,21.58000, 3.2270e-004
107.101,21.66667, 3.2787e-004
107.531,21.75333, 3.3332e-004
107.958,21.84000, 3.3894e-004
108.385,21.92667, 3.4447e-004
108.812,22.01333, 3.4960e-004
109.247,22.10000, 3.5597e-004
109.676,22.18667, 3.6183e-004
110.105,22.27333, 3.6714e-004
110.529,22.36000, 3.7224e-004
110.948,22.44667, 3.7741e-004
111.375,22.53333, 3.8288e-004
111.816,22.62000, 3.8844e-004
112.236,22.70667, 3.9467e-004
112.662,22.79333, 3.9956e-004
113.085,22.88000, 4.0482e-004
113.514,22.96667, 4.1103e-004
113.942,23.05333, 4.1594e-004
114.367,23.14000, 4.2169e-004
114.791,23.22667, 4.2725e-004
115.21,23.31333, 4.3295e-004
115.641,23.40000, 4.3832e-004
116.065,23.48667, 4.4353e-004
116.486,23.57333, 4.4863e-004
116.9,23.66000, 4.5391e-004
117.333,23.74667, 4.5910e-004
117.748,23.83333, 4.6460e-004
118.178,23.92000, 4.7047e-004
118.601,24.00667, 4.7547e-004
119.025,24.09333, 4.8025e-004
119.447,24.18000, 4.8598e-004
119.866,24.26667, 4.9155e-004
120.282,24.35333, 4.9746e-004
120.706,24.44000, 5.0202e-004
121.129,24.52667, 5.0846e-004
121.542,24.61333, 5.1330e-004
121.967,24.70000, 5.1918e-004
122.394,24.78667, 5.2481e-004
122.812,24.87333, 5.3021e-004
123.231,24.96000, 5.3561e-004
123.655,25.04667, 5.4097e-004
124.063,25.13333, 5.4553e-004
124.481,25.22000, 5.5167e-004
124.792,25.28500, 5.5480e-004