File: data_backup/14.1mm-083019/ExpDat_sapph14.1mm08302019.csv
#EXPORTTYPE:           ,DATA ALL
#FILE:                 ,sapph14mm08302019.ngb-cle
#FORMAT:               ,NETZSCH5
#FTYPE:                ,ANSI
#IDENTITY:             ,sapph stnd 14
#DECIMAL:              ,POINT
#SEPARATOR:            ,COMMA
#MTYPE:                ,DIL
#INSTRUMENT:           ,NETZSCH DIL 402C
#PROJECT:              ,feldspar
#DATE/TIME:            ,8/30/2019 10:03:28 AM (UTC-5)
#CORR. FILE:           ,
#TEMPCAL:              ,TCALZERO.TMX
#LABORATORY:           ,Mineral Physics
#OPERATOR:             ,PAG
#REMARK:               ,bare, norm start, for bytown and rocks
#SAMPLE:               ,sapphire
#SAMPLE LENGTH /mm:    ,14.059
#MATERIAL:             ,sapphire stnd
#MEASMODE:             ,Standard Expansion
#PURGE GAS 1:          ,ARGON
#FLOW RATE 1 /(ml/min):,75
#M.RANGE /µm:          ,500
#CORR. CODE:           ,010
#RANGE:                ,20.0°C/3.0(K/min)/1350.0°C/25.0(K/min)/900.0°C/
#SEGMENT:              ,S1-2/2
#SEG. 1:               ,20.0°C/3.0(K/min)/1350.0°C
#SEG. 2:               ,1350.0°C/25.0(K/min)/900.0°C

##Temp./°C,Time/min,dL/Lo,Segment
  22.04700,  0.00000, 1.8881e-005,1
  22.07400,  1.62500, 1.6851e-005,1
  22.09900,  3.25000, 1.5367e-005,1
  23.47500,  4.87500, 6.0163e-006,1
  28.97100,  6.50000,-1.0679e-006,1
  36.56000,  8.12500, 3.1423e-005,1
  44.38900,  9.75000, 9.3087e-005,1
  52.60800, 11.37500, 1.6877e-004,1
  61.20600, 13.00000, 2.6187e-004,1
  69.87000, 14.62500, 3.6556e-004,1
  78.46100, 16.25000, 4.7549e-004,1
  86.95000, 17.87500, 5.8907e-004,1
  95.31300, 19.50000, 7.0564e-004,1
 103.535, 21.12500, 8.2330e-004,1
 111.672, 22.75000, 9.4114e-004,1
 119.716, 24.37500, 1.0582e-003,1
 127.668, 26.00000, 1.1746e-003,1
 135.535, 27.62500, 1.2913e-003,1
 143.298, 29.25000, 1.4073e-003,1
 150.993, 30.87500, 1.5220e-003,1
 158.625, 32.50000, 1.6363e-003,1
 166.188, 34.12500, 1.7495e-003,1
 173.696, 35.75000, 1.8625e-003,1
 181.131, 37.37500, 1.9753e-003,1
 188.517, 39.00000, 2.0871e-003,1
 195.84, 40.62500, 2.1984e-003,1
 203.09, 42.25000, 2.3083e-003,1
 210.271, 43.87500, 2.4179e-003,1
 217.392, 45.50000, 2.5262e-003,1
 224.435, 47.12500, 2.6344e-003,1
 231.417, 48.75000, 2.7411e-003,1
 238.362, 50.37500, 2.8477e-003,1
 245.223, 52.00000, 2.9529e-003,1
 252.01, 53.62500, 3.0590e-003,1
 258.688, 55.25000, 3.1660e-003,1
 265.298, 56.87500, 3.2680e-003,1
 272.104, 58.50000, 3.3673e-003,1
 278.998, 60.12500, 3.4695e-003,1
 285.746, 61.75000, 3.5728e-003,1
 292.348, 63.37500, 3.6742e-003,1
 298.86, 65.00000, 3.7749e-003,1
 305.227, 66.62500, 3.8740e-003,1
 311.509, 68.25000, 3.9718e-003,1
 317.703, 69.87500, 4.0680e-003,1
 323.844, 71.50000, 4.1632e-003,1
 329.933, 73.12500, 4.2575e-003,1
 335.968, 74.75000, 4.3508e-003,1
 341.976, 76.37500, 4.4436e-003,1
 347.926, 78.00000, 4.5353e-003,1
 353.827, 79.62500, 4.6263e-003,1
 359.703, 81.25000, 4.7167e-003,1
 365.544, 82.87500, 4.8068e-003,1
 371.331, 84.50000, 4.8959e-003,1
 377.118, 86.12500, 4.9848e-003,1
 382.844, 87.75000, 5.0730e-003,1
 388.546, 89.37500, 5.1616e-003,1
 394.193, 91.00000, 5.2490e-003,1
 399.812, 92.62500, 5.3354e-003,1
 405.39, 94.25000, 5.4217e-003,1
 410.939, 95.87500, 5.5071e-003,1
 416.456, 97.50000, 5.5924e-003,1
 421.942, 99.12500, 5.6771e-003,1
 427.397,100.75, 5.7612e-003,1
 432.803,102.375, 5.8448e-003,1
 438.181,104, 5.9281e-003,1
 443.518,105.625, 6.0110e-003,1
 448.831,107.25, 6.0932e-003,1
 454.11,108.875, 6.1762e-003,1
 459.294,110.5, 6.2611e-003,1
 464.44,112.125, 6.3412e-003,1
 469.801,113.75, 6.4202e-003,1
 475.245,115.375, 6.5022e-003,1
 480.58,117, 6.5847e-003,1
 485.834,118.625, 6.6665e-003,1
 491.008,120.25, 6.7470e-003,1
 496.1,121.875, 6.8264e-003,1
 501.135,123.5, 6.9047e-003,1
 506.139,125.125, 6.9830e-003,1
 511.082,126.75, 7.0599e-003,1
 516.018,128.375, 7.1371e-003,1
 520.931,130, 7.2132e-003,1
 525.813,131.625, 7.2900e-003,1
 530.697,133.25, 7.3661e-003,1
 535.565,134.875, 7.4421e-003,1
 540.408,136.5, 7.5176e-003,1
 545.238,138.125, 7.5937e-003,1
 550.056,139.75, 7.6688e-003,1
 554.83,141.375, 7.7443e-003,1
 559.608,143, 7.8190e-003,1
 564.37,144.625, 7.8939e-003,1
 569.109,146.25, 7.9681e-003,1
 573.826,147.875, 8.0431e-003,1
 578.446,149.5, 8.1188e-003,1
 583.079,151.125, 8.1914e-003,1
 587.906,152.75, 8.2637e-003,1
 592.753,154.375, 8.3390e-003,1
 597.523,156, 8.4140e-003,1
 602.231,157.625, 8.4879e-003,1
 606.889,159.25, 8.5617e-003,1
 611.512,160.875, 8.6345e-003,1
 616.089,162.5, 8.7066e-003,1
 620.67,164.125, 8.7794e-003,1
 625.221,165.75, 8.8513e-003,1
 629.751,167.375, 8.9231e-003,1
 634.27,169, 8.9948e-003,1
 638.791,170.625, 9.0668e-003,1
 643.249,172.25, 9.1400e-003,1
 647.64,173.875, 9.2116e-003,1
 652.135,175.5, 9.2815e-003,1
 656.766,177.125, 9.3528e-003,1
 661.344,178.75, 9.4248e-003,1
 665.875,180.375, 9.4968e-003,1
 670.336,182, 9.5671e-003,1
 674.773,183.625, 9.6376e-003,1
 679.193,185.25, 9.7082e-003,1
 683.573,186.875, 9.7784e-003,1
 687.916,188.5, 9.8473e-003,1
 692.237,190.125, 9.9174e-003,1
 696.521,191.75, 9.9859e-003,1
 700.774,193.375, 1.0055e-002,1
 705.008,195, 1.0122e-002,1
 709.247,196.625, 1.0189e-002,1
 713.49,198.25, 1.0257e-002,1
 717.73,199.875, 1.0325e-002,1
 721.921,201.5, 1.0394e-002,1
 726.046,203.125, 1.0462e-002,1
 730.318,204.75, 1.0527e-002,1
 734.689,206.375, 1.0596e-002,1
 739.03,208, 1.0666e-002,1
 743.33,209.625, 1.0734e-002,1
 747.613,211.25, 1.0802e-002,1
 751.866,212.875, 1.0870e-002,1
 756.105,214.5, 1.0938e-002,1
 760.329,216.125, 1.1006e-002,1
 764.524,217.75, 1.1074e-002,1
 768.716,219.375, 1.1141e-002,1
 772.914,221, 1.1208e-002,1
 777.097,222.625, 1.1276e-002,1
 781.265,224.25, 1.1344e-002,1
 785.423,225.875, 1.1412e-002,1
 789.337,227.5, 1.1480e-002,1
 792.989,229.125, 1.1543e-002,1
 796.848,230.75, 1.1603e-002,1
 800.847,232.375, 1.1669e-002,1
 804.631,234, 1.1733e-002,1
 808.37,235.625, 1.1793e-002,1
 812.327,237.25, 1.1857e-002,1
 816.318,238.875, 1.1920e-002,1
 820.365,240.5, 1.1985e-002,1
 824.418,242.125, 1.2049e-002,1
 828.49,243.75, 1.2115e-002,1
 832.52,245.375, 1.2182e-002,1
 836.664,247, 1.2247e-002,1
 840.924,248.625, 1.2314e-002,1
 845.261,250.25, 1.2382e-002,1
 849.559,251.875, 1.2451e-002,1
 853.856,253.5, 1.2520e-002,1
 858.12,255.125, 1.2588e-002,1
 862.37,256.75, 1.2656e-002,1
 866.627,258.375, 1.2725e-002,1
 870.855,260, 1.2793e-002,1
 875.001,261.625, 1.2861e-002,1
 878.713,263.25, 1.2926e-002,1
 882.406,264.875, 1.2984e-002,1
 886.685,266.5, 1.3053e-002,1
 890.56,268.125, 1.3120e-002,1
 894.526,269.75, 1.3182e-002,1
 898.568,271.375, 1.3246e-002,1
 902.529,273, 1.3309e-002,1
 906.37,274.625, 1.3372e-002,1
 909.956,276.25, 1.3432e-002,1
 912.597,277.875, 1.3482e-002,1
 916.628,279.5, 1.3535e-002,1
 920.955,281.125, 1.3606e-002,1
 925.106,282.75, 1.3671e-002,1
 929.083,284.375, 1.3737e-002,1
 933.229,286, 1.3801e-002,1
 937.621,287.625, 1.3872e-002,1
 941.607,289.25, 1.3936e-002,1
 945.976,290.875, 1.4003e-002,1
 950.5,292.5, 1.4075e-002,1
 954.883,294.125, 1.4145e-002,1
 959.155,295.75, 1.4214e-002,1
 963.602,297.375, 1.4286e-002,1
 967.976,299, 1.4356e-002,1
 972.44,300.625, 1.4429e-002,1
 976.822,302.25, 1.4499e-002,1
 981.18,303.875, 1.4572e-002,1
 985.418,305.5, 1.4645e-002,1
 989.64,307.125, 1.4714e-002,1
 993.978,308.75, 1.4784e-002,1
 998.418,310.375, 1.4855e-002,1
1002.87,312, 1.4927e-002,1
1007.28,313.625, 1.4998e-002,1
1011.61,315.25, 1.5068e-002,1
1015.8,316.875, 1.5135e-002,1
1020.26,318.5, 1.5205e-002,1
1024.74,320.125, 1.5277e-002,1
1029,321.75, 1.5348e-002,1
1033.33,323.375, 1.5419e-002,1
1037.86,325, 1.5491e-002,1
1042.26,326.625, 1.5564e-002,1
1046.69,328.25, 1.5636e-002,1
1051.07,329.875, 1.5707e-002,1
1055.51,331.5, 1.5778e-002,1
1059.89,333.125, 1.5850e-002,1
1064.16,334.75, 1.5921e-002,1
1068.56,336.375, 1.5990e-002,1
1072.83,338, 1.6063e-002,1
1077.13,339.625, 1.6133e-002,1
1081.59,341.25, 1.6207e-002,1
1085.97,342.875, 1.6278e-002,1
1090.48,344.5, 1.6352e-002,1
1094.95,346.125, 1.6425e-002,1
1099.38,347.75, 1.6498e-002,1
1103.53,349.375, 1.6565e-002,1
1107.66,351, 1.6633e-002,1
1111.98,352.625, 1.6700e-002,1
1116.9,354.25, 1.6781e-002,1
1120.46,355.875, 1.6842e-002,1
1125.45,357.5, 1.6920e-002,1
1130.29,359.125, 1.7000e-002,1
1134.82,360.75, 1.7073e-002,1
1139.44,362.375, 1.7147e-002,1
1143.93,364, 1.7218e-002,1
1148.47,365.625, 1.7289e-002,1
1153.93,367.25, 1.7373e-002,1
1158.06,368.875, 1.7442e-002,1
1162.61,370.5, 1.7510e-002,1
1166.67,372.125, 1.7575e-002,1
1171.33,373.75, 1.7646e-002,1
1175.83,375.375, 1.7715e-002,1
1180.34,377, 1.7784e-002,1
1184.8,378.625, 1.7849e-002,1
1189.51,380.25, 1.7922e-002,1
1194.51,381.875, 1.7990e-002,1
1201.11,383.5, 1.8096e-002,1
1205.24,385.125, 1.8161e-002,1
1209.07,386.75, 1.8220e-002,1
1213.05,388.375, 1.8282e-002,1
1217.28,390, 1.8347e-002,1
1221.1,391.625, 1.8406e-002,1
1226.51,393.25, 1.8487e-002,1
1231.89,394.875, 1.8570e-002,1
1236.95,396.5, 1.8652e-002,1
1241.95,398.125, 1.8728e-002,1
1246.09,399.75, 1.8798e-002,1
1250.22,401.375, 1.8862e-002,1
1255.03,403, 1.8932e-002,1
1259.46,404.625, 1.9002e-002,1
1264.02,406.25, 1.9072e-002,1
1268.53,407.875, 1.9140e-002,1
1273.33,409.5, 1.9211e-002,1
1277.67,411.125, 1.9275e-002,1
1282.6,412.75, 1.9346e-002,1
1287.35,414.375, 1.9422e-002,1
1292.07,416, 1.9492e-002,1
1296.83,417.625, 1.9565e-002,1
1301.38,419.25, 1.9634e-002,1
1305.97,420.875, 1.9700e-002,1
1310.58,422.5, 1.9772e-002,1
1315.08,424.125, 1.9838e-002,1
1319.52,425.75, 1.9902e-002,1
1324.07,427.375, 1.9969e-002,1
1328.84,429, 2.0043e-002,1
1333.56,430.625, 2.0118e-002,1
1338.06,432.25, 2.0193e-002,1
1342.27,433.875, 2.0263e-002,1
1347.05,435.5, 2.0342e-002,1
1351.43,437.125, 2.0416e-002,1
1356.34,438.75, 2.0495e-002,1
1361.28,440.375, 2.0579e-002,1
1365.78,442, 2.0655e-002,1
1370.11,443.438, 2.0727e-002,2
1364.37,444.188, 2.0743e-002,2
1348.24,444.938, 2.0565e-002,2
1330.36,445.688, 2.0310e-002,2
1312.64,446.438, 2.0045e-002,2
1295.24,447.188, 1.9783e-002,2
1277.7,447.938, 1.9519e-002,2
1259.86,448.688, 1.9249e-002,2
1241.87,449.438, 1.8973e-002,2
1223.97,450.188, 1.8694e-002,2
1206.05,450.938, 1.8416e-002,2
1188.11,451.688, 1.8137e-002,2
1170.25,452.438, 1.7855e-002,2
1152.55,453.188, 1.7576e-002,2
1134.9,453.938, 1.7298e-002,2
1117.27,454.688, 1.7018e-002,2
1099.67,455.438, 1.6741e-002,2
1082.03,456.188, 1.6463e-002,2
1064.38,456.938, 1.6184e-002,2
1046.82,457.688, 1.5905e-002,2
1029.46,458.438, 1.5628e-002,2
1012.33,459.188, 1.5356e-002,2
 995.318,459.938, 1.5087e-002,2
 978.33,460.688, 1.4819e-002,2
 964.755,461.288, 1.4605e-002,2