File: data_backup/14.1mm-083019/fmt001sAr1-11.2mm-081619.csv
#EXPORTTYPE:           ,DATA ALL
#FILE:                 ,fmtl001Arun1.ngb-sle
#FORMAT:               ,NETZSCH5
#FTYPE:                ,ANSI
#IDENTITY:             ,fmt olig base
#DECIMAL:              ,POINT
#SEPARATOR:            ,COMMA
#MTYPE:                ,DIL
#INSTRUMENT:           ,NETZSCH DIL 402C
#PROJECT:              ,feldspar
#DATE/TIME:            ,8/16/2019 10:53:52 AM (UTC-5)
#CORR. FILE:           ,
#TEMPCAL:              ,TCALZERO.TMX
#LABORATORY:           ,Mineral Physics
#OPERATOR:             ,PAG
#REMARK:               ,bare, norm start, for oligoclase fmt base 11.19 by 8.8 mm, probably 001
#SAMPLE:               ,fmt001A
#SAMPLE LENGTH /mm:    ,11.19
#MATERIAL:             ,sapphire stnd
#MEASMODE:             ,Standard Expansion
#PURGE GAS 1:          ,ARGON
#FLOW RATE 1 /(ml/min):,75
#M.RANGE /µm:          ,500
#CORR. CODE:           ,010
#RANGE:                ,20.0°C/3.0(K/min)/990.0°C
#SEGMENT:              ,S1/1
#SEG. 1:               ,20.0°C/3.0(K/min)/990.0°C

##Temp./°C,Time/min,dL/Lo,Alpha/(1/K)
  22.05900,  0.00000, 1.8974e-005,-4.6302e-006
  26.55900,  5.87915,-1.3150e-005,-2.8161e-007
  31.05900,  6.91107,-3.6424e-006, 4.6278e-006
  35.55900,  7.83989, 2.5546e-005, 8.3745e-006
  40.05900,  8.75401, 6.8907e-005, 1.0484e-005
  44.55900,  9.66688, 1.1962e-004, 1.1856e-005
  49.05900, 10.56038, 1.7504e-004, 1.2829e-005
  53.55900, 11.42549, 2.3463e-004, 1.3514e-005
  58.05900, 12.27133, 2.9692e-004, 1.4377e-005
  62.55900, 13.10724, 3.6374e-004, 1.5297e-005
  67.05900, 13.94397, 4.3399e-004, 1.6304e-005
  71.55900, 14.78468, 5.0795e-004, 1.6670e-005
  76.05900, 15.62872, 5.8441e-004, 1.6912e-005
  80.55900, 16.47804, 6.6340e-004, 1.7928e-005
  85.05900, 17.33288, 7.4323e-004, 1.7891e-005
  89.55900, 18.20004, 8.2444e-004, 1.8227e-005
  94.05900, 19.07422, 9.0717e-004, 1.8543e-005
  98.55900, 19.95553, 9.9060e-004, 1.8244e-005
 103.059, 20.84382, 1.0746e-003, 1.8340e-005
 107.559, 21.73968, 1.1592e-003, 1.9082e-005
 112.059, 22.64352, 1.2440e-003, 1.9574e-005
 116.559, 23.55207, 1.3299e-003, 1.9685e-005
 121.059, 24.46851, 1.4154e-003, 1.9354e-005
 125.559, 25.38789, 1.5020e-003, 1.8904e-005
 130.059, 26.31589, 1.5888e-003, 1.8828e-005
 134.559, 27.24730, 1.6747e-003, 1.9255e-005
 139.059, 28.18486, 1.7620e-003, 1.9232e-005
 143.559, 29.12450, 1.8487e-003, 1.8844e-005
 148.059, 30.06576, 1.9358e-003, 1.9508e-005
 152.559, 31.01625, 2.0227e-003, 1.9485e-005
 157.059, 31.97410, 2.1103e-003, 1.9600e-005
 161.559, 32.93434, 2.1983e-003, 1.9825e-005
 166.059, 33.89992, 2.2859e-003, 1.9716e-005
 170.559, 34.87032, 2.3744e-003, 1.9393e-005
 175.059, 35.84816, 2.4625e-003, 1.9352e-005
 179.559, 36.83433, 2.5515e-003, 1.9516e-005
 184.059, 37.82229, 2.6400e-003, 1.9362e-005
 188.559, 38.81409, 2.7290e-003, 1.9161e-005
 193.059, 39.81211, 2.8175e-003, 2.0403e-005
 197.559, 40.81465, 2.9066e-003, 1.9336e-005
 202.059, 41.82476, 2.9960e-003, 1.9961e-005
 206.559, 42.83947, 3.0849e-003, 2.0329e-005
 211.059, 43.86038, 3.1743e-003, 1.9536e-005
 215.559, 44.89035, 3.2637e-003, 2.0345e-005
 220.059, 45.92378, 3.3531e-003, 2.0018e-005
 224.559, 46.96377, 3.4431e-003, 2.0268e-005
 229.059, 48.00888, 3.5331e-003, 2.0111e-005
 233.559, 49.06143, 3.6225e-003, 1.9670e-005
 238.059, 50.11915, 3.7130e-003, 2.0413e-005
 242.559, 51.18616, 3.8032e-003, 2.0491e-005
 247.059, 52.25431, 3.8928e-003, 2.0399e-005
 251.559, 53.33195, 3.9835e-003, 2.0157e-005
 256.059, 54.41497, 4.0736e-003, 1.9884e-005
 260.559, 55.50532, 4.1639e-003, 2.0406e-005
 265.059, 56.60021, 4.2548e-003, 1.9503e-005
 269.559, 57.70051, 4.3454e-003, 2.0347e-005
 274.059, 58.80965, 4.4363e-003, 2.0591e-005
 278.559, 59.92890, 4.5274e-003, 1.9850e-005
 283.059, 61.05238, 4.6185e-003, 2.0236e-005
 287.559, 62.18262, 4.7091e-003, 2.0624e-005
 292.059, 63.31588, 4.8001e-003, 2.0146e-005
 296.559, 64.46061, 4.8912e-003, 2.0540e-005
 301.059, 65.61397, 4.9826e-003, 1.9872e-005
 305.559, 66.76934, 5.0736e-003, 2.0378e-005
 310.059, 67.93192, 5.1653e-003, 2.0068e-005
 314.559, 69.10350, 5.2564e-003, 2.0569e-005
 319.059, 70.27933, 5.3482e-003, 2.0823e-005
 323.559, 71.46341, 5.4394e-003, 2.0598e-005
 328.059, 72.65446, 5.5314e-003, 2.0643e-005
 332.559, 73.85603, 5.6233e-003, 2.0430e-005
 337.059, 75.06236, 5.7153e-003, 2.0220e-005
 341.559, 76.27356, 5.8073e-003, 2.0461e-005
 346.059, 77.49390, 5.8992e-003, 2.0314e-005
 350.559, 78.71810, 5.9910e-003, 2.1066e-005
 355.059, 79.95352, 6.0865e-003, 2.0737e-005
 359.559, 81.21131, 6.1835e-003, 2.1074e-005
 364.059, 82.47465, 6.2776e-003, 2.0482e-005
 368.559, 83.70533, 6.3664e-003, 1.9509e-005
 373.059, 84.90345, 6.4545e-003, 1.9832e-005
 377.559, 86.09458, 6.5450e-003, 2.0334e-005
 382.059, 87.31369, 6.6373e-003, 2.0663e-005
 386.559, 88.55587, 6.7305e-003, 2.1420e-005
 391.059, 89.81735, 6.8238e-003, 2.0648e-005
 395.559, 91.09238, 6.9168e-003, 2.1463e-005
 400.059, 92.38727, 7.0108e-003, 2.0863e-005
 404.559, 93.69545, 7.1053e-003, 2.1238e-005
 409.059, 95.01375, 7.1995e-003, 2.0738e-005
 413.559, 96.34286, 7.2939e-003, 2.1921e-005
 418.059, 97.67889, 7.3886e-003, 2.1247e-005
 422.559, 99.02485, 7.4827e-003, 2.0689e-005
 427.059,100.374, 7.5769e-003, 2.2116e-005
 431.559,101.733, 7.6722e-003, 2.1089e-005
 436.059,103.1, 7.7666e-003, 2.1249e-005
 440.559,104.467, 7.8615e-003, 2.1157e-005
 445.059,105.839, 7.9566e-003, 2.1511e-005
 449.559,107.225, 8.0521e-003, 2.0204e-005
 454.059,108.614, 8.1470e-003, 2.0938e-005
 458.559,110.004, 8.2426e-003, 2.1503e-005
 463.059,111.405, 8.3386e-003, 2.0987e-005
 467.559,112.812, 8.4347e-003, 2.0842e-005
 472.059,114.221, 8.5305e-003, 2.1425e-005
 476.559,115.636, 8.6275e-003, 2.1359e-005
 481.059,117.064, 8.7241e-003, 2.1045e-005
 485.559,118.496, 8.8215e-003, 2.1481e-005
 490.059,119.934, 8.9179e-003, 2.1358e-005
 494.559,121.383, 9.0153e-003, 2.2028e-005
 499.059,122.838, 9.1127e-003, 2.1872e-005
 503.559,124.292, 9.2101e-003, 2.1795e-005
 508.059,125.758, 9.3081e-003, 2.2275e-005
 512.559,127.236, 9.4079e-003, 2.2236e-005
 517.059,128.736, 9.5105e-003, 2.3044e-005
 521.559,130.231, 9.6094e-003, 2.1637e-005
 526.059,131.666, 9.7042e-003, 2.1067e-005
 530.559,133.094, 9.8016e-003, 2.1845e-005
 535.059,134.554, 9.9014e-003, 2.2131e-005
 539.559,136.032, 1.0001e-002, 2.2163e-005
 544.059,137.529, 1.0102e-002, 2.3172e-005
 548.559,139.046, 1.0203e-002, 2.1992e-005
 553.059,140.575, 1.0305e-002, 2.2064e-005
 557.559,142.108, 1.0406e-002, 2.2171e-005
 562.059,143.647, 1.0508e-002, 2.2987e-005
 566.559,145.194, 1.0609e-002, 2.2975e-005
 571.059,146.748, 1.0711e-002, 2.2497e-005
 575.559,148.301, 1.0812e-002, 2.2507e-005
 580.059,149.86, 1.0915e-002, 2.2534e-005
 584.559,151.425, 1.1016e-002, 2.2829e-005
 589.059,152.989, 1.1118e-002, 2.1742e-005
 593.559,154.559, 1.1220e-002, 2.2502e-005
 598.059,156.134, 1.1322e-002, 2.3054e-005
 602.559,157.719, 1.1424e-002, 2.1437e-005
 607.059,159.301, 1.1527e-002, 2.2986e-005
 611.559,160.892, 1.1629e-002, 2.2097e-005
 616.059,162.482, 1.1731e-002, 2.2922e-005
 620.559,164.093, 1.1836e-002, 2.3868e-005
 625.059,165.739, 1.1942e-002, 2.3498e-005
 629.559,167.343, 1.2041e-002, 2.0092e-005
 634.059,168.901, 1.2140e-002, 2.1406e-005
 638.559,170.474, 1.2241e-002, 2.0243e-005
 643.059,172.064, 1.2343e-002, 2.2361e-005
 647.559,173.674, 1.2445e-002, 2.2452e-005
 652.059,175.301, 1.2546e-002, 2.3511e-005
 656.559,176.937, 1.2648e-002, 2.2884e-005
 661.059,178.581, 1.2750e-002, 2.2968e-005
 665.559,180.235, 1.2851e-002, 2.3870e-005
 670.059,181.904, 1.2954e-002, 2.3526e-005
 674.559,183.61, 1.3060e-002, 2.4033e-005
 679.059,185.3, 1.3162e-002, 2.2394e-005
 683.559,186.937, 1.3262e-002, 2.3282e-005
 688.059,188.588, 1.3364e-002, 2.3359e-005
 692.559,190.266, 1.3467e-002, 2.3595e-005
 697.059,191.964, 1.3569e-002, 2.3260e-005
 701.559,193.669, 1.3672e-002, 2.2988e-005
 706.059,195.379, 1.3773e-002, 2.3659e-005
 710.559,197.087, 1.3876e-002, 2.1100e-005
 715.059,198.809, 1.3979e-002, 2.3176e-005
 719.559,200.525, 1.4081e-002, 2.1233e-005
 724.059,202.251, 1.4182e-002, 2.1485e-005
 728.559,203.979, 1.4285e-002, 2.2546e-005
 733.059,205.709, 1.4389e-002, 2.1155e-005
 737.559,207.441, 1.4492e-002, 2.1789e-005
 742.059,209.176, 1.4596e-002, 2.3226e-005
 746.559,210.942, 1.4702e-002, 2.2340e-005
 751.059,212.724, 1.4806e-002, 2.4974e-005
 755.559,214.424, 1.4908e-002, 2.2850e-005
 760.059,216.121, 1.5011e-002, 2.3811e-005
 764.559,217.836, 1.5114e-002, 2.4172e-005
 769.059,219.564, 1.5216e-002, 2.4078e-005
 773.559,221.315, 1.5320e-002, 2.5352e-005
 778.059,223.101, 1.5427e-002, 2.3627e-005
 782.559,224.996, 1.5532e-002, 2.1347e-005
 787.059,226.891, 1.5638e-002, 2.1688e-005
 791.559,228.832, 1.5743e-002, 2.0776e-005
 796.059,230.802, 1.5849e-002, 2.0869e-005
 800.559,232.702, 1.5953e-002, 2.3688e-005
 805.059,234.618, 1.6057e-002, 2.6067e-005
 809.559,236.478, 1.6162e-002, 2.1134e-005
 814.059,238.355, 1.6269e-002, 2.1130e-005
 818.559,240.101, 1.6370e-002, 2.1256e-005
 823.059,241.831, 1.6474e-002, 2.5536e-005
 827.559,243.567, 1.6576e-002, 2.1288e-005
 832.059,245.306, 1.6681e-002, 2.1351e-005
 836.559,247.043, 1.6785e-002, 2.0782e-005
 841.059,248.742, 1.6886e-002, 2.1004e-005
 845.559,250.501, 1.6993e-002, 2.0738e-005
 850.059,252.25, 1.7097e-002, 2.3207e-005
 854.559,254.019, 1.7204e-002, 2.2935e-005
 859.059,255.857, 1.7311e-002, 3.0863e-005
 863.559,257.955, 1.7423e-002, 2.5055e-005
 868.059,259.707, 1.7526e-002, 2.2856e-005
 872.559,261.492, 1.7633e-002, 2.1905e-005
 877.059,263.244, 1.7740e-002, 2.2873e-005
 881.559,265.025, 1.7846e-002, 2.1403e-005
 886.059,266.87, 1.7951e-002, 2.1767e-005
 890.559,268.659, 1.8056e-002, 2.0618e-005
 895.059,270.339, 1.8163e-002, 3.3341e-005
 899.559,272.061, 1.8268e-002, 2.1837e-005
 904.059,274.004, 1.8380e-002, 2.2594e-005
 908.559,275.999, 1.8495e-002, 3.9269e-005
 913.059,278.334, 1.8598e-002, 2.9504e-005
 917.559,279.99, 1.8709e-002, 2.3242e-005
 922.059,281.702, 1.8819e-002, 2.1592e-005
 926.559,283.466, 1.8931e-002, 2.2516e-005
 931.059,285.241, 1.9046e-002, 2.3647e-005
 935.559,286.991, 1.9145e-002, 2.1031e-005
 940.059,288.705, 1.9251e-002, 2.1706e-005
 944.559,290.39, 1.9354e-002, 2.2677e-005
 949.059,292.07, 1.9461e-002, 2.1008e-005
 953.559,293.723, 1.9568e-002, 2.1787e-005
 958.059,295.437, 1.9677e-002, 2.1058e-005
 962.559,297.121, 1.9785e-002, 2.8518e-005
 967.059,299.08, 1.9900e-002, 1.8784e-005
 971.559,300.776, 2.0008e-002, 2.1689e-005
 976.059,302.281, 2.0112e-002, 2.2362e-005
 980.559,303.994, 2.0227e-002, 1.7758e-005
 985.059,305.628, 2.0335e-002, 2.2396e-005
 989.559,307.296, 2.0441e-002, 2.3436e-005
 994.059,309.045, 2.0550e-002, 2.0631e-005
 998.559,310.701, 2.0658e-002, 2.1618e-005
1003.06,312.365, 2.0766e-002, 2.0711e-005
1007.56,313.984, 2.0877e-002, 3.1551e-005
1009.06,314.525, 2.0916e-002, 2.0426e-005