File: data_backup/14.1mm-083019/moon000s2r2-13.6mm-091319.csv
#EXPORTTYPE:           ,DATA ALL
#FILE:                 ,moonstoneS2run2.ngb-sle
#FORMAT:               ,NETZSCH5
#FTYPE:                ,ANSI
#IDENTITY:             ,moonstone #2 rerun
#DECIMAL:              ,POINT
#SEPARATOR:            ,COMMA
#MTYPE:                ,DIL
#INSTRUMENT:           ,NETZSCH DIL 402C
#PROJECT:              ,feldspar
#DATE/TIME:            ,9/13/2019 3:41:45 PM (UTC-5)
#CORR. FILE:           ,
#TEMPCAL:              ,TCALZERO.TMX
#LABORATORY:           ,Mineral Physics
#OPERATOR:             ,PAG
#REMARK:               ,bare, norm start, for bytown and rocks moonstone Or-Ab solid soln box 1 prob 100* rectangle with notch,pink did not remeas lenght was with a micron
#SAMPLE:               ,fmu-box2
#SAMPLE LENGTH /mm:    ,13.568
#MATERIAL:             ,sapphire stnd
#MEASMODE:             ,Standard Expansion
#PURGE GAS 1:          ,ARGON
#FLOW RATE 1 /(ml/min):,75
#M.RANGE /µm:          ,500
#CORR. CODE:           ,010
#RANGE:                ,20.0°C/5.0(K/min)/430.0°C
#SEGMENT:              ,S1/1
#SEG. 1:               ,20.0°C/5.0(K/min)/430.0°C

##Temp./°C,Time/min,dL/Lo
 21.77900, 0.00000, 1.6966e-005
 21.73300, 0.23833, 2.2432e-005
 21.68500, 0.47667, 2.6760e-005
 21.62700, 0.71500, 2.9911e-005
 21.57100, 0.95333, 3.2192e-005
 21.51100, 1.19167, 3.3726e-005
 21.45100, 1.43000, 3.4495e-005
 21.39800, 1.66833, 3.4927e-005
 21.37900, 1.90667, 3.5040e-005
 21.39200, 2.14500, 3.3935e-005
 21.47300, 2.38333, 3.1860e-005
 21.65300, 2.62167, 2.8015e-005
 21.96000, 2.86000, 2.3142e-005
 22.40800, 3.09833, 1.6274e-005
 23.01100, 3.33667, 8.1375e-006
 23.79200, 3.57500,-8.8899e-007
 24.73900, 3.81333,-1.1443e-005
 25.85000, 4.05167,-2.2402e-005
 27.13000, 4.29000,-3.3849e-005
 28.54500, 4.52833,-4.5132e-005
 30.08000, 4.76667,-5.6586e-005
 31.72800, 5.00500,-6.7006e-005
 33.46000, 5.24333,-7.6399e-005
 35.26800, 5.48167,-8.5170e-005
 37.12000, 5.72000,-9.2288e-005
 39.00600, 5.95833,-9.8589e-005
 40.91900, 6.19667,-1.0320e-004
 42.85600, 6.43500,-1.0624e-004
 44.78000, 6.67333,-1.0832e-004
 46.73600, 6.91167,-1.0867e-004
 48.68200, 7.15000,-1.0879e-004
 50.63700, 7.38833,-1.0765e-004
 52.58100, 7.62667,-1.0621e-004
 54.55800, 7.86500,-1.0327e-004
 56.52300, 8.10333,-1.0032e-004
 58.52000, 8.34167,-9.6582e-005
 60.51000, 8.58000,-9.2668e-005
 62.54600, 8.81833,-8.7716e-005
 64.59400, 9.05667,-8.2396e-005
 66.65900, 9.29500,-7.6605e-005
 68.73300, 9.53333,-7.0863e-005
 70.82600, 9.77167,-6.4285e-005
 72.94000,10.01000,-5.7465e-005
 75.06800,10.24833,-5.0065e-005
 77.19200,10.48667,-4.2143e-005
 79.32700,10.72500,-3.4050e-005
 81.45800,10.96333,-2.5268e-005
 83.58800,11.20167,-1.5988e-005
 85.72000,11.44000,-6.2255e-006
 87.85400,11.67833, 4.0662e-006
 89.96200,11.91667, 1.4508e-005
 92.07300,12.15500, 2.5770e-005
 94.18800,12.39333, 3.7097e-005
 96.29000,12.63167, 4.8714e-005
 98.37100,12.87000, 6.0635e-005
100.44,13.10833, 7.2909e-005
102.499,13.34667, 8.5345e-005
104.568,13.58500, 9.7908e-005
106.624,13.82333, 1.1084e-004
108.658,14.06167, 1.2350e-004
110.706,14.30000, 1.3650e-004
112.732,14.53833, 1.4984e-004
114.758,14.77667, 1.6310e-004
116.782,15.01500, 1.7650e-004
118.777,15.25333, 1.8997e-004
120.795,15.49167, 2.0329e-004
122.789,15.73000, 2.1686e-004
124.774,15.96833, 2.3059e-004
126.761,16.20667, 2.4431e-004
128.739,16.44500, 2.5868e-004
130.706,16.68333, 2.7250e-004
132.679,16.92167, 2.8654e-004
134.645,17.16000, 3.0080e-004
136.599,17.39833, 3.1473e-004
138.542,17.63667, 3.2907e-004
140.477,17.87500, 3.4310e-004
142.399,18.11333, 3.5693e-004
144.326,18.35167, 3.7145e-004
146.256,18.59000, 3.8541e-004
148.168,18.82833, 3.9964e-004
150.082,19.06667, 4.1417e-004
151.982,19.30500, 4.2848e-004
153.877,19.54333, 4.4275e-004
155.773,19.78167, 4.5692e-004
157.667,20.02000, 4.7125e-004
159.537,20.25833, 4.8538e-004
161.415,20.49667, 4.9983e-004
163.27,20.73500, 5.1377e-004
165.142,20.97333, 5.2807e-004
167.003,21.21167, 5.4240e-004
168.865,21.45000, 5.5661e-004
170.721,21.68833, 5.7080e-004
172.567,21.92667, 5.8498e-004
174.413,22.16500, 5.9900e-004
176.248,22.40333, 6.1331e-004
178.072,22.64167, 6.2738e-004
179.886,22.88000, 6.4136e-004
181.709,23.11833, 6.5548e-004
183.528,23.35667, 6.6954e-004
185.341,23.59500, 6.8399e-004
187.15,23.83333, 6.9813e-004
188.954,24.07167, 7.1207e-004
190.756,24.31000, 7.2605e-004
192.546,24.54833, 7.4036e-004
194.341,24.78667, 7.5430e-004
196.136,25.02500, 7.6833e-004
197.915,25.26333, 7.8221e-004
199.698,25.50167, 7.9603e-004
201.476,25.74000, 8.0995e-004
203.252,25.97833, 8.2405e-004
205.018,26.21667, 8.3762e-004
206.781,26.45500, 8.5151e-004
208.54,26.69333, 8.6542e-004
210.304,26.93167, 8.7909e-004
212.055,27.17000, 8.9257e-004
213.806,27.40833, 9.0620e-004
215.547,27.64667, 9.1993e-004
217.282,27.88500, 9.3354e-004
219.015,28.12333, 9.4746e-004
220.749,28.36167, 9.6095e-004
222.479,28.60000, 9.7456e-004
224.204,28.83833, 9.8834e-004
225.93,29.07667, 1.0016e-003
227.654,29.31500, 1.0154e-003
229.366,29.55333, 1.0290e-003
231.079,29.79167, 1.0422e-003
232.783,30.03000, 1.0558e-003
234.482,30.26833, 1.0692e-003
236.178,30.50667, 1.0829e-003
237.865,30.74500, 1.0963e-003
239.553,30.98333, 1.1094e-003
241.24,31.22167, 1.1227e-003
242.917,31.46000, 1.1359e-003
244.599,31.69833, 1.1494e-003
246.267,31.93667, 1.1622e-003
247.938,32.17500, 1.1753e-003
249.601,32.41333, 1.1883e-003
251.255,32.65167, 1.2016e-003
252.917,32.89000, 1.2147e-003
254.568,33.12833, 1.2275e-003
256.22,33.36667, 1.2407e-003
257.861,33.60500, 1.2536e-003
259.512,33.84333, 1.2667e-003
261.15,34.08167, 1.2795e-003
262.794,34.32000, 1.2927e-003
264.419,34.55833, 1.3053e-003
266.05,34.79667, 1.3183e-003
267.672,35.03500, 1.3312e-003
269.289,35.27333, 1.3438e-003
270.91,35.51167, 1.3565e-003
272.522,35.75000, 1.3692e-003
274.132,35.98833, 1.3821e-003
275.737,36.22667, 1.3947e-003
277.335,36.46500, 1.4072e-003
278.94,36.70333, 1.4198e-003
280.539,36.94167, 1.4326e-003
282.139,37.18000, 1.4449e-003
283.725,37.41833, 1.4578e-003
285.322,37.65667, 1.4701e-003
286.906,37.89500, 1.4826e-003
288.487,38.13333, 1.4947e-003
290.058,38.37167, 1.5068e-003
291.637,38.61000, 1.5191e-003
293.208,38.84833, 1.5317e-003
294.779,39.08667, 1.5438e-003
296.334,39.32500, 1.5561e-003
297.889,39.56333, 1.5681e-003
299.45,39.80167, 1.5802e-003
300.995,40.04000, 1.5924e-003
302.542,40.27833, 1.6046e-003
304.103,40.51667, 1.6165e-003
305.657,40.75500, 1.6290e-003
307.204,40.99333, 1.6409e-003
308.749,41.23167, 1.6532e-003
310.287,41.47000, 1.6650e-003
311.831,41.70833, 1.6767e-003
313.374,41.94667, 1.6893e-003
314.899,42.18500, 1.7008e-003
316.427,42.42333, 1.7126e-003
317.95,42.66167, 1.7242e-003
319.459,42.90000, 1.7364e-003
320.968,43.13833, 1.7482e-003
322.485,43.37667, 1.7597e-003
323.996,43.61500, 1.7716e-003
325.496,43.85333, 1.7829e-003
327.003,44.09167, 1.7947e-003
328.51,44.33000, 1.8066e-003
330.001,44.56833, 1.8180e-003
331.493,44.80667, 1.8296e-003
332.989,45.04500, 1.8414e-003
334.466,45.28333, 1.8529e-003
335.946,45.52167, 1.8648e-003
337.407,45.76000, 1.8756e-003
338.89,45.99833, 1.8874e-003
340.365,46.23667, 1.8992e-003
341.839,46.47500, 1.9106e-003
343.299,46.71333, 1.9222e-003
344.765,46.95167, 1.9339e-003
346.224,47.19000, 1.9448e-003
347.68,47.42833, 1.9562e-003
349.134,47.66667, 1.9672e-003
350.582,47.90500, 1.9785e-003
352.033,48.14333, 1.9901e-003
353.474,48.38167, 2.0009e-003
354.927,48.62000, 2.0121e-003
356.375,48.85833, 2.0233e-003
357.825,49.09667, 2.0346e-003
359.273,49.33500, 2.0457e-003
360.717,49.57333, 2.0566e-003
362.158,49.81167, 2.0678e-003
363.599,50.05000, 2.0786e-003
365.031,50.28833, 2.0896e-003
366.455,50.52667, 2.1008e-003
367.877,50.76500, 2.1119e-003
369.299,51.00333, 2.1228e-003
370.722,51.24167, 2.1337e-003
372.134,51.48000, 2.1448e-003
373.546,51.71833, 2.1556e-003
374.957,51.95667, 2.1665e-003
376.364,52.19500, 2.1774e-003
377.764,52.43333, 2.1884e-003
379.165,52.67167, 2.1990e-003
380.568,52.91000, 2.2099e-003
381.973,53.14833, 2.2206e-003
383.381,53.38667, 2.2316e-003
384.776,53.62500, 2.2427e-003
386.178,53.86333, 2.2536e-003
387.567,54.10167, 2.2640e-003
388.952,54.34000, 2.2751e-003
390.332,54.57833, 2.2855e-003
391.722,54.81667, 2.2961e-003
393.103,55.05500, 2.3072e-003
394.474,55.29333, 2.3177e-003
395.848,55.53167, 2.3281e-003
397.214,55.77000, 2.3386e-003
398.585,56.00833, 2.3494e-003
399.952,56.24667, 2.3598e-003
401.312,56.48500, 2.3703e-003
402.669,56.72333, 2.3805e-003
404.023,56.96167, 2.3912e-003
405.384,57.20000, 2.4015e-003
406.747,57.43833, 2.4118e-003
408.101,57.67667, 2.4225e-003
409.453,57.91500, 2.4323e-003
410.803,58.15333, 2.4430e-003
412.149,58.39167, 2.4530e-003
413.501,58.63000, 2.4630e-003
414.843,58.86833, 2.4732e-003
416.186,59.10667, 2.4839e-003
417.527,59.34500, 2.4941e-003
418.867,59.58333, 2.5038e-003
420.207,59.82167, 2.5147e-003
421.539,60.06000, 2.5244e-003
422.866,60.29833, 2.5341e-003
424.198,60.53667, 2.5439e-003
425.522,60.77500, 2.5549e-003
426.845,61.01333, 2.5647e-003
428.178,61.25167, 2.5752e-003
429.502,61.49000, 2.5850e-003
430.818,61.72833, 2.5949e-003
432.137,61.96667, 2.6053e-003
433.451,62.20500, 2.6154e-003
434.763,62.44333, 2.6249e-003
436.077,62.68167, 2.6350e-003
437.393,62.92000, 2.6451e-003
438.704,63.15833, 2.6549e-003
440.006,63.39667, 2.6645e-003
441.307,63.63500, 2.6743e-003
442.607,63.87333, 2.6844e-003
443.918,64.11167, 2.6944e-003
445.212,64.35000, 2.7045e-003
446.507,64.58833, 2.7141e-003
447.792,64.82667, 2.7243e-003
449.095,65.06500, 2.7344e-003
449.801,65.19500, 2.7392e-003