File: data_backup/14.1mm-083019/moon0p2s2r2-15mm-102719.csv
#EXPORTTYPE:           ,DATA ALL                                                                                                                   ,,,,,,,
#FILE:                 ,moonstonS2p2ru2.ngb-sle                                                                                                    ,,,,,,,
#FORMAT:               ,NETZSCH5                                                                                                                   ,,,,,,,
#FTYPE:                ,ANSI                                                                                                                       ,,,,,,,
#IDENTITY:             ,fmu1 piece2                                                                                                                ,,,,,,,
#DECIMAL:              ,POINT                                                                                                                      ,,,,,,,
#SEPARATOR:            ,COMMA                                                                                                                      ,,,,,,,
#MTYPE:                ,DIL                                                                                                                        ,,,,,,,
#INSTRUMENT:           ,NETZSCH DIL 402C                                                                                                           ,,,,,,,
#PROJECT:              ,feldspar                                                                                                                   ,,,,,,,
#DATE/TIME:            ,10/27/2019 12:49:23 PM (UTC-5)                                                                                             ,,,,,,,
#CORR. FILE:           ,                                                                                                                           ,,,,,,,
#TEMPCAL:              ,TCALZERO.TMX                                                                                                               ,,,,,,,
#LABORATORY:           ,Mineral Physics                                                                                                            ,,,,,,,
#OPERATOR:             ,PAG                                                                                                                        ,,,,,,,
#REMARK:               ,bare, norm start, for bytown and rocks , long stnd, new thermocouple, new pushrod,ffresh cut of moonsone  orient 1, retry
#SAMPLE:               ,moonstone                                                                                                                  ,,,,,,,
#SAMPLE LENGTH /mm:    ,14.99,,,,,,,
#MATERIAL:             ,sapphire stnd                                                                                                              ,,,,,,,
#MEASMODE:             ,Standard Expansion                                                                                                         ,,,,,,,
#PURGE GAS 1:          ,ARGON                                                                                                                      ,,,,,,,
#FLOW RATE 1 /(ml/min):,75,,,,,,,
#M.RANGE /µm:          ,500,,,,,,,
#CORR. CODE:           ,10,,,,,,,
#RANGE:                ,20.0°C/3.0(K/min)/770.0°C                                                                                                  ,,,,,,,
#SEGMENT:              ,S1/1                                                                                                                       ,,,,,,,
#SEG. 1:               ,20.0°C/3.0(K/min)/770.0°C                                                                                                  ,,,,,,,
,,,,,,,,
##Temp./°C,Time/min,dL/Lo,,,,,,
22.064,0.00000000000,0.00001900200,,,,,,
22.079,0.75833,0.00002395400,,,,,,
22.057,1.51667,0.00002371400,,,,,,
22.022,2.275,0.00002137000,,,,,,
21.954,3.03333,0.00001779900,,,,,,
22.186,3.79167,0.00001169300,,,,,,
23.171,4.55,0.00000053895,,,,,,
25.152,5.30833,-0.00001230600,,,,,,
28.03,6.06667,-0.00002303000,,,,,,
31.461,6.825,-0.00007729500,,,,,,
35.116,7.58333,-0.00028007,,,,,,
38.786,8.34167,-0.00047868,,,,,,
42.477,9.1,-0.00065286,,,,,,
46.211,9.85833,-0.00083682,,,,,,
50.051,10.6167,-0.00099869,,,,,,
53.973,11.375,-0.001171,,,,,,
57.97,12.1333,-0.0012689,,,,,,
61.987,12.8917,-0.0012884,,,,,,
66.02,13.65,-0.0012796,,,,,,
69.989,14.4083,-0.0012608,,,,,,
73.97,15.1667,-0.0012376,,,,,,
77.909,15.925,-0.0012125,,,,,,
81.825,16.6833,-0.0011851,,,,,,
85.718,17.4417,-0.0011582,,,,,,
89.577,18.2,-0.0011302,,,,,,
93.403,18.9583,-0.0011007,,,,,,
97.207,19.7167,-0.0010704,,,,,,
100.971,20.475,-0.0010398,,,,,,
104.709,21.2333,-0.0010085,,,,,,
108.422,21.9917,-0.00097726,,,,,,
112.111,22.75,-0.00094615,,,,,,
115.786,23.5083,-0.00091491,,,,,,
119.449,24.2667,-0.00088304,,,,,,
123.087,25.025,-0.00085137,,,,,,
126.722,25.7833,-0.00081978,,,,,,
130.33,26.5417,-0.00078873,,,,,,
133.924,27.3,-0.00075707,,,,,,
137.496,28.0583,-0.00072574,,,,,,
141.039,28.8167,-0.00069474,,,,,,
144.579,29.575,-0.0006633,,,,,,
148.1,30.3333,-0.00063171,,,,,,
151.595,31.0917,-0.00060044,,,,,,
155.087,31.85,-0.0005688,,,,,,
158.587,32.6083,-0.00053733,,,,,,
162.043,33.3667,-0.00050602,,,,,,
165.494,34.125,-0.00047419,,,,,,
168.938,34.8833,-0.00044291,,,,,,
172.356,35.6417,-0.00041142,,,,,,
175.749,36.4,-0.00038001,,,,,,
179.136,37.1583,-0.00034824,,,,,,
182.522,37.9167,-0.00031694,,,,,,
185.905,38.675,-0.00028512,,,,,,
189.266,39.4333,-0.00025344,,,,,,
192.616,40.1917,-0.0002222,,,,,,
195.934,40.95,-0.00019026,,,,,,
199.243,41.7083,-0.00015841,,,,,,
202.552,42.4667,-0.00012653,,,,,,
205.832,43.225,-0.00009516100,,,,,,
209.112,43.9833,-0.00006291500,,,,,,
212.381,44.7417,-0.00003088200,,,,,,
215.614,45.5,0.00000072851,,,,,,
218.839,46.2583,0.00003245400,,,,,,
222.053,47.0167,0.00006431400,,,,,,
225.255,47.775,0.00009630600,,,,,,
228.435,48.5333,0.00012787,,,,,,
231.611,49.2917,0.00015991,,,,,,
234.775,50.05,0.00019165,,,,,,
237.938,50.8083,0.00022313,,,,,,
241.073,51.5667,0.00025522,,,,,,
244.198,52.325,0.0002867,,,,,,
247.31,53.0833,0.00031851,,,,,,
250.406,53.8417,0.0003506,,,,,,
253.491,54.6,0.00038204,,,,,,
256.558,55.3583,0.00041397,,,,,,
259.606,56.1167,0.00044565,,,,,,
262.647,56.875,0.00047824,,,,,,
265.688,57.6333,0.00051085,,,,,,
268.711,58.3917,0.00054358,,,,,,
271.713,59.15,0.00057628,,,,,,
274.707,59.9083,0.00060905,,,,,,
277.694,60.6667,0.00064169,,,,,,
280.676,61.425,0.00067467,,,,,,
283.655,62.1833,0.00070851,,,,,,
286.614,62.9417,0.00074173,,,,,,
289.558,63.7,0.00077579,,,,,,
292.489,64.4583,0.00081088,,,,,,
295.406,65.2167,0.0008443,,,,,,
298.315,65.975,0.00087764,,,,,,
301.209,66.7333,0.00091024,,,,,,
304.089,67.4917,0.00094446,,,,,,
306.957,68.25,0.00098195,,,,,,
309.831,69.0083,0.0010181,,,,,,
312.695,69.7667,0.0010529,,,,,,
315.525,70.525,0.0010867,,,,,,
318.401,71.2833,0.00063334,,,,,,
321.275,72.0417,0.00067218,,,,,,
324.087,72.8,0.00073798,,,,,,
326.891,73.5583,0.00077303,,,,,,
329.678,74.3167,0.00090382,,,,,,
332.456,75.075,0.0010182,,,,,,
335.226,75.8333,0.0010521,,,,,,
337.965,76.5917,0.0018394,,,,,,
340.715,77.35,0.0018576,,,,,,
343.472,78.1083,0.0020746,,,,,,
346.216,78.8667,0.0020902,,,,,,
348.939,79.625,0.0021161,,,,,,
351.656,80.3833,0.0021694,,,,,,
354.357,81.1417,0.0022698,,,,,,
357.072,81.9,0.002285,,,,,,
359.76,82.6583,0.0023538,,,,,,
362.453,83.4167,0.0023882,,,,,,
365.13,84.175,0.0023995,,,,,,
367.795,84.9333,0.0024448,,,,,,
370.465,85.6917,0.0024609,,,,,,
373.124,86.45,0.002483,,,,,,
375.777,87.2083,0.0025144,,,,,,
378.42,87.9667,0.0025325,,,,,,
381.038,88.725,0.002556,,,,,,
383.664,89.4833,0.0025905,,,,,,
386.273,90.2417,0.0026154,,,,,,
388.877,91,0.0026557,,,,,,
391.482,91.7583,0.0026752,,,,,,
394.076,92.5167,0.0027018,,,,,,
396.665,93.275,0.0027263,,,,,,
399.237,94.0333,0.0027522,,,,,,
401.804,94.7917,0.0027816,,,,,,
404.359,95.55,0.0028071,,,,,,
406.916,96.3083,0.0028321,,,,,,
409.473,97.0667,0.0028585,,,,,,
412.021,97.825,0.0028819,,,,,,
414.556,98.5833,0.0029069,,,,,,
417.074,99.3417,0.0029302,,,,,,
419.6,100.1,0.0029546,,,,,,
422.115,100.858,0.0029792,,,,,,
424.612,101.617,0.003006,,,,,,
427.126,102.375,0.0030288,,,,,,
429.616,103.133,0.0030536,,,,,,
432.109,103.892,0.0030776,,,,,,
434.582,104.65,0.0031023,,,,,,
437.055,105.408,0.0031272,,,,,,
439.524,106.167,0.0031518,,,,,,
441.984,106.925,0.0031765,,,,,,
444.442,107.683,0.0032012,,,,,,
446.884,108.442,0.0032259,,,,,,
449.327,109.2,0.0032502,,,,,,
451.768,109.958,0.0032745,,,,,,
454.202,110.717,0.0032993,,,,,,
456.626,111.475,0.0033238,,,,,,
459.046,112.233,0.0033484,,,,,,
461.459,112.992,0.0033732,,,,,,
463.878,113.75,0.0033972,,,,,,
466.287,114.508,0.0034215,,,,,,
468.685,115.267,0.0034494,,,,,,
471.077,116.025,0.0034737,,,,,,
473.459,116.783,0.0034975,,,,,,
475.826,117.542,0.0035228,,,,,,
478.199,118.3,0.0035461,,,,,,
480.577,119.058,0.0035707,,,,,,
482.948,119.817,0.0035952,,,,,,
485.3,120.575,0.0036198,,,,,,
487.653,121.333,0.0036449,,,,,,
489.984,122.092,0.0036699,,,,,,
492.289,122.85,0.0036957,,,,,,
494.573,123.608,0.0037206,,,,,,
496.853,124.367,0.003745,,,,,,
499.173,125.125,0.0037682,,,,,,
501.544,125.883,0.0037914,,,,,,
503.949,126.642,0.0038146,,,,,,
506.369,127.4,0.0038386,,,,,,
508.757,128.158,0.003863,,,,,,
511.129,128.917,0.003888,,,,,,
513.497,129.675,0.0039126,,,,,,
515.833,130.433,0.003937,,,,,,
518.156,131.192,0.0039613,,,,,,
520.477,131.95,0.0039857,,,,,,
522.781,132.708,0.0040098,,,,,,
525.075,133.467,0.0040341,,,,,,
527.349,134.225,0.0040582,,,,,,
529.621,134.983,0.0040818,,,,,,
531.894,135.742,0.0041066,,,,,,
534.159,136.5,0.0041301,,,,,,
536.412,137.258,0.0041537,,,,,,
538.668,138.017,0.0041777,,,,,,
540.894,138.775,0.0042009,,,,,,
543.135,139.533,0.004225,,,,,,
545.382,140.292,0.0042491,,,,,,
547.61,141.05,0.0042725,,,,,,
549.851,141.808,0.0042963,,,,,,
552.08,142.567,0.0043195,,,,,,
554.312,143.325,0.0043435,,,,,,
556.537,144.083,0.0043671,,,,,,
558.761,144.842,0.0043905,,,,,,
560.982,145.6,0.0044142,,,,,,
563.199,146.358,0.0044373,,,,,,
565.399,147.117,0.0044604,,,,,,
567.611,147.875,0.0044839,,,,,,
569.827,148.633,0.0045069,,,,,,
572.035,149.392,0.0045384,,,,,,
574.247,150.15,0.0045588,,,,,,
576.448,150.908,0.0045814,,,,,,
578.65,151.667,0.0046044,,,,,,
580.849,152.425,0.0046278,,,,,,
583.036,153.183,0.0046514,,,,,,
585.222,153.942,0.0046753,,,,,,
587.42,154.7,0.0046987,,,,,,
589.6,155.458,0.0047219,,,,,,
591.786,156.217,0.0047462,,,,,,
593.965,156.975,0.0047696,,,,,,
596.136,157.733,0.0047934,,,,,,
598.303,158.492,0.0048173,,,,,,
600.487,159.25,0.0048409,,,,,,
602.648,160.008,0.0048655,,,,,,
604.785,160.767,0.0048899,,,,,,
606.911,161.525,0.0049155,,,,,,
609.019,162.283,0.0049404,,,,,,
611.126,163.042,0.0049641,,,,,,
613.257,163.8,0.0049868,,,,,,
615.443,164.558,0.0050102,,,,,,
617.669,165.317,0.0050339,,,,,,
619.899,166.075,0.0050581,,,,,,
622.102,166.833,0.0050823,,,,,,
624.285,167.592,0.0051061,,,,,,
626.464,168.35,0.0051298,,,,,,
628.624,169.108,0.0051543,,,,,,
630.777,169.867,0.0051779,,,,,,
632.926,170.625,0.0052021,,,,,,
635.057,171.383,0.005226,,,,,,
637.204,172.142,0.0052502,,,,,,
639.312,172.9,0.005274,,,,,,
641.424,173.658,0.0052975,,,,,,
643.547,174.417,0.0053215,,,,,,
645.668,175.175,0.0053451,,,,,,
647.773,175.933,0.0053692,,,,,,
649.87,176.692,0.0053924,,,,,,
651.962,177.45,0.0054159,,,,,,
654.054,178.208,0.005439,,,,,,
656.135,178.967,0.0054622,,,,,,
658.226,179.725,0.005486,,,,,,
660.313,180.483,0.005509,,,,,,
662.398,181.242,0.0055318,,,,,,
664.473,182,0.0055549,,,,,,
666.551,182.758,0.0055781,,,,,,
668.618,183.517,0.0056012,,,,,,
670.692,184.275,0.0056245,,,,,,
672.767,185.033,0.0056483,,,,,,
674.839,185.792,0.0056711,,,,,,
676.89,186.55,0.0057004,,,,,,
678.949,187.308,0.0057276,,,,,,
680.992,188.067,0.0057498,,,,,,
683.045,188.825,0.0057723,,,,,,
685.092,189.583,0.0057953,,,,,,
687.116,190.342,0.0058178,,,,,,
689.133,191.1,0.0058411,,,,,,
691.133,191.858,0.0058632,,,,,,
693.145,192.617,0.0058854,,,,,,
695.146,193.375,0.0059088,,,,,,
697.116,194.133,0.0059318,,,,,,
699.055,194.892,0.0059548,,,,,,
700.989,195.65,0.0059767,,,,,,
702.949,196.408,0.0059986,,,,,,
704.963,197.167,0.0060179,,,,,,
707.024,197.925,0.0060381,,,,,,
709.103,198.683,0.0060595,,,,,,
711.181,199.442,0.0060815,,,,,,
713.241,200.2,0.0061026,,,,,,
715.299,200.958,0.0061244,,,,,,
717.348,201.717,0.0061523,,,,,,
719.355,202.475,0.0061757,,,,,,
721.395,203.233,0.0061978,,,,,,
723.423,203.992,0.006219,,,,,,
725.45,204.75,0.0062398,,,,,,
727.47,205.508,0.0062603,,,,,,
729.468,206.267,0.0062808,,,,,,
731.458,207.025,0.0063017,,,,,,
733.461,207.783,0.0063243,,,,,,
735.457,208.542,0.006345,,,,,,
737.443,209.3,0.0063666,,,,,,
739.428,210.058,0.0063881,,,,,,
741.41,210.817,0.0064102,,,,,,
743.392,211.575,0.0064317,,,,,,
745.363,212.333,0.0064526,,,,,,
747.296,213.092,0.0064735,,,,,,
749.265,213.85,0.0064939,,,,,,
751.231,214.608,0.0065144,,,,,,
753.195,215.367,0.006535,,,,,,
755.164,216.125,0.0065547,,,,,,
757.136,216.883,0.0065749,,,,,,
759.105,217.642,0.0065951,,,,,,
761.075,218.4,0.0066163,,,,,,
763.038,219.158,0.0066361,,,,,,
765.002,219.917,0.0066554,,,,,,
766.961,220.675,0.0066755,,,,,,
768.932,221.433,0.0066961,,,,,,
770.866,222.192,0.0067161,,,,,,
772.766,222.95,0.0067366,,,,,,
774.664,223.708,0.006756,,,,,,
776.57,224.467,0.0067757,,,,,,
777.951,225.008,0.0067894,,,,,,