File: data_backup/8.1mm/ExpDat_sapph8.1mm08192019.csv
#EXPORTTYPE:           ,DATA ALL
#FILE:                 ,sapph8mm08192019.ngb-cle
#FORMAT:               ,NETZSCH5
#FTYPE:                ,ANSI
#IDENTITY:             ,sapphire 8 mm
#DECIMAL:              ,POINT
#SEPARATOR:            ,COMMA
#MTYPE:                ,DIL
#INSTRUMENT:           ,NETZSCH DIL 402C
#PROJECT:              ,feldspar
#DATE/TIME:            ,8/19/2019 9:42:37 AM (UTC-5)
#CORR. FILE:           ,
#TEMPCAL:              ,TCALZERO.TMX
#LABORATORY:           ,Mineral Physics
#OPERATOR:             ,PAG
#REMARK:               ,bare, norm start, for short plageioclase
#SAMPLE:               ,stnd saph 8
#SAMPLE LENGTH /mm:    ,8.092
#MATERIAL:             ,sapphire stnd
#MEASMODE:             ,Standard Expansion
#PURGE GAS 1:          ,ARGON
#FLOW RATE 1 /(ml/min):,75
#M.RANGE /µm:          ,500
#CORR. CODE:           ,010
#RANGE:                ,20.0°C/3.0(K/min)/1100.0°C
#SEGMENT:              ,S1/1
#SEG. 1:               ,20.0°C/3.0(K/min)/1100.0°C

##Temp./°C,Time/min,dL/Lo
  22.72300,  0.00000, 2.3712e-005
  26.72300,  6.08430,-4.2922e-005
  30.72300,  7.04938,-6.4779e-005
  34.72300,  7.89803,-6.4276e-005
  38.72300,  8.72736,-4.5857e-005
  42.72300,  9.55156,-1.6446e-005
  46.72300, 10.36597, 1.8212e-005
  50.72300, 11.15780, 5.5326e-005
  54.72300, 11.92972, 9.5354e-005
  58.72300, 12.68793, 1.3858e-004
  62.72300, 13.43856, 1.8559e-004
  66.72300, 14.18779, 2.3689e-004
  70.72300, 14.94140, 2.9136e-004
  74.72300, 15.69849, 3.4863e-004
  78.72300, 16.45990, 4.0708e-004
  82.72300, 17.22587, 4.6857e-004
  86.72300, 18.00161, 5.3262e-004
  90.72300, 18.78104, 5.9932e-004
  94.72300, 19.57344, 6.6795e-004
  98.72300, 20.37462, 7.3707e-004
 102.723, 21.17895, 8.0437e-004
 106.723, 21.98066, 8.7084e-004
 110.723, 22.77239, 9.3582e-004
 114.723, 23.55754, 1.0008e-003
 118.723, 24.33949, 1.0660e-003
 122.723, 25.12469, 1.1326e-003
 126.723, 25.91400, 1.2010e-003
 130.723, 26.71234, 1.2700e-003
 134.723, 27.52014, 1.3405e-003
 138.723, 28.33175, 1.4118e-003
 142.723, 29.15334, 1.4828e-003
 146.723, 29.98219, 1.5550e-003
 150.723, 30.81873, 1.6272e-003
 154.723, 31.66304, 1.6995e-003
 158.723, 32.51283, 1.7725e-003
 162.723, 33.36930, 1.8447e-003
 166.723, 34.23421, 1.9173e-003
 170.723, 35.10421, 1.9908e-003
 174.723, 35.98046, 2.0635e-003
 178.723, 36.86010, 2.1364e-003
 182.723, 37.74530, 2.2099e-003
 186.723, 38.63720, 2.2819e-003
 190.723, 39.53336, 2.3547e-003
 194.723, 40.43320, 2.4273e-003
 198.723, 41.33842, 2.5005e-003
 202.723, 42.24865, 2.5732e-003
 206.723, 43.16172, 2.6449e-003
 210.723, 44.07627, 2.7173e-003
 214.723, 44.99594, 2.7893e-003
 218.723, 45.92099, 2.8622e-003
 222.723, 46.85262, 2.9346e-003
 226.723, 47.78619, 3.0065e-003
 230.723, 48.72595, 3.0795e-003
 234.723, 49.66796, 3.1510e-003
 238.723, 50.61438, 3.2232e-003
 242.723, 51.56784, 3.2956e-003
 246.723, 52.52819, 3.3685e-003
 250.723, 53.49082, 3.4409e-003
 254.723, 54.45751, 3.5131e-003
 258.723, 55.42990, 3.5851e-003
 262.723, 56.40503, 3.6563e-003
 266.723, 57.38757, 3.7291e-003
 270.723, 58.37391, 3.8018e-003
 274.723, 59.36371, 3.8740e-003
 278.723, 60.36304, 3.9460e-003
 282.723, 61.36448, 4.0174e-003
 286.723, 62.37243, 4.0896e-003
 290.723, 63.38695, 4.1614e-003
 294.723, 64.40615, 4.2338e-003
 298.723, 65.42992, 4.3061e-003
 302.723, 66.45996, 4.3773e-003
 306.723, 67.49448, 4.4488e-003
 310.723, 68.53590, 4.5216e-003
 314.723, 69.57986, 4.5928e-003
 318.723, 70.63084, 4.6643e-003
 322.723, 71.68530, 4.7360e-003
 326.723, 72.74369, 4.8074e-003
 330.723, 73.80906, 4.8794e-003
 334.723, 74.88020, 4.9507e-003
 338.723, 75.95769, 5.0209e-003
 342.723, 77.03765, 5.0929e-003
 346.723, 78.12401, 5.1652e-003
 350.723, 79.22362, 5.2365e-003
 354.723, 80.32486, 5.3079e-003
 358.723, 81.42684, 5.3779e-003
 362.723, 82.53604, 5.4490e-003
 366.723, 83.64937, 5.5209e-003
 370.723, 84.77089, 5.5914e-003
 374.723, 85.89658, 5.6628e-003
 378.723, 87.02463, 5.7343e-003
 382.723, 88.16171, 5.8062e-003
 386.723, 89.30260, 5.8799e-003
 390.723, 90.45872, 5.9555e-003
 394.723, 91.62911, 6.0296e-003
 398.723, 92.77799, 6.0986e-003
 402.723, 93.89484, 6.1644e-003
 406.723, 95.00482, 6.2320e-003
 410.723, 96.13151, 6.3024e-003
 414.723, 97.27237, 6.3729e-003
 418.723, 98.42686, 6.4434e-003
 422.723, 99.59622, 6.5151e-003
 426.723,100.782, 6.5867e-003
 430.723,101.977, 6.6579e-003
 434.723,103.179, 6.7299e-003
 438.723,104.389, 6.8009e-003
 442.723,105.626, 6.8727e-003
 446.723,106.852, 6.9434e-003
 450.723,108.079, 7.0139e-003
 454.723,109.311, 7.0852e-003
 458.723,110.549, 7.1560e-003
 462.723,111.791, 7.2276e-003
 466.723,113.038, 7.2983e-003
 470.723,114.285, 7.3698e-003
 474.723,115.539, 7.4410e-003
 478.723,116.799, 7.5120e-003
 482.723,118.069, 7.5833e-003
 486.723,119.338, 7.6542e-003
 490.723,120.609, 7.7249e-003
 494.723,121.891, 7.7958e-003
 498.723,123.174, 7.8662e-003
 502.723,124.46, 7.9368e-003
 506.723,125.755, 8.0060e-003
 510.723,127.053, 8.0770e-003
 514.723,128.353, 8.1476e-003
 518.723,129.662, 8.2189e-003
 522.723,130.973, 8.2897e-003
 526.723,132.286, 8.3603e-003
 530.723,133.605, 8.4316e-003
 534.723,134.949, 8.5078e-003
 538.723,136.309, 8.5822e-003
 542.723,137.632, 8.6496e-003
 546.723,138.912, 8.7175e-003
 550.723,140.202, 8.7864e-003
 554.723,141.511, 8.8575e-003
 558.723,142.836, 8.9274e-003
 562.723,144.177, 8.9988e-003
 566.723,145.53, 9.0702e-003
 570.723,146.892, 9.1408e-003
 574.723,148.261, 9.2116e-003
 578.723,149.636, 9.2833e-003
 582.723,151.02, 9.3539e-003
 586.723,152.402, 9.4261e-003
 590.723,153.808, 9.5026e-003
 594.723,155.243, 9.5786e-003
 598.723,156.64, 9.6467e-003
 602.723,157.995, 9.7144e-003
 606.723,159.342, 9.7843e-003
 610.723,160.713, 9.8544e-003
 614.723,162.099, 9.9265e-003
 618.723,163.501, 9.9966e-003
 622.723,164.908, 1.0067e-002
 626.723,166.333, 1.0139e-002
 630.723,167.758, 1.0210e-002
 634.723,169.19, 1.0281e-002
 638.723,170.625, 1.0353e-002
 642.723,172.068, 1.0424e-002
 646.723,173.512, 1.0496e-002
 650.723,174.957, 1.0567e-002
 654.723,176.406, 1.0639e-002
 658.723,177.86, 1.0711e-002
 662.723,179.317, 1.0782e-002
 666.723,180.781, 1.0853e-002
 670.723,182.242, 1.0925e-002
 674.723,183.71, 1.0997e-002
 678.723,185.199, 1.1072e-002
 682.723,186.72, 1.1148e-002
 686.723,188.215, 1.1219e-002
 690.723,189.667, 1.1288e-002
 694.723,191.13, 1.1360e-002
 698.723,192.62, 1.1431e-002
 702.723,194.121, 1.1503e-002
 706.723,195.635, 1.1575e-002
 710.723,197.158, 1.1647e-002
 714.723,198.684, 1.1718e-002
 718.723,200.205, 1.1790e-002
 722.723,201.732, 1.1861e-002
 726.723,203.268, 1.1934e-002
 730.723,204.797, 1.2005e-002
 734.723,206.328, 1.2077e-002
 738.723,207.864, 1.2149e-002
 742.723,209.403, 1.2221e-002
 746.723,210.939, 1.2294e-002
 750.723,212.489, 1.2369e-002
 754.723,214.078, 1.2444e-002
 758.723,215.637, 1.2515e-002
 762.723,217.14, 1.2586e-002
 766.723,218.647, 1.2657e-002
 770.723,220.167, 1.2728e-002
 774.723,221.701, 1.2800e-002
 778.723,223.248, 1.2873e-002
 782.723,224.813, 1.2946e-002
 786.723,226.455, 1.3020e-002
 790.723,228.144, 1.3097e-002
 794.723,229.861, 1.3169e-002
 798.723,231.558, 1.3246e-002
 802.723,233.343, 1.3320e-002
 806.723,235.054, 1.3391e-002
 810.723,236.686, 1.3463e-002
 814.723,238.333, 1.3540e-002
 818.723,239.985, 1.3611e-002
 822.723,241.548, 1.3680e-002
 826.723,243.083, 1.3749e-002
 830.723,244.615, 1.3820e-002
 834.723,246.137, 1.3889e-002
 838.723,247.668, 1.3961e-002
 842.723,249.204, 1.4033e-002
 846.723,250.733, 1.4103e-002
 850.723,252.267, 1.4176e-002
 854.723,253.808, 1.4248e-002
 858.723,255.313, 1.4317e-002
 862.723,256.874, 1.4393e-002
 866.723,258.432, 1.4465e-002
 870.723,260.032, 1.4542e-002
 874.723,261.773, 1.4622e-002
 878.723,263.405, 1.4692e-002
 882.723,264.95, 1.4764e-002
 886.723,266.503, 1.4835e-002
 890.723,268.056, 1.4908e-002
 894.723,269.628, 1.4980e-002
 898.723,271.221, 1.5052e-002
 902.723,272.831, 1.5125e-002
 906.723,274.489, 1.5200e-002
 910.723,276.228, 1.5277e-002
 914.723,278.372, 1.5362e-002
 918.723,280.268, 1.5430e-002
 922.723,281.741, 1.5503e-002
 926.723,283.463, 1.5581e-002
 930.723,285.03, 1.5648e-002
 934.723,286.568, 1.5719e-002
 938.723,288.079, 1.5789e-002
 942.723,289.617, 1.5860e-002
 946.723,291.126, 1.5931e-002
 950.723,292.667, 1.6003e-002
 954.723,294.193, 1.6073e-002
 958.723,295.656, 1.6143e-002
 962.723,297.207, 1.6219e-002
 966.723,298.724, 1.6289e-002
 970.723,300.247, 1.6363e-002
 974.723,301.746, 1.6438e-002
 978.723,303.205, 1.6510e-002
 982.723,304.626, 1.6581e-002
 986.723,306.028, 1.6653e-002
 990.723,307.456, 1.6727e-002
 994.723,308.953, 1.6802e-002
 998.723,310.452, 1.6875e-002
1002.72,311.981, 1.6949e-002
1006.72,313.52, 1.7023e-002
1010.72,315.025, 1.7095e-002
1014.72,316.499, 1.7167e-002
1018.72,317.99, 1.7241e-002
1022.72,319.481, 1.7314e-002
1026.72,320.982, 1.7390e-002
1030.72,322.428, 1.7462e-002
1034.72,323.971, 1.7536e-002
1038.72,325.468, 1.7609e-002
1042.72,327.1, 1.7686e-002
1046.72,328.438, 1.7747e-002
1050.72,329.86, 1.7829e-002
1054.72,331.451, 1.7904e-002
1058.72,332.955, 1.7978e-002
1062.72,334.428, 1.8050e-002
1066.72,335.906, 1.8126e-002
1070.72,337.337, 1.8199e-002
1074.72,338.873, 1.8278e-002
1078.72,340.357, 1.8347e-002
1082.72,341.851, 1.8418e-002
1086.72,343.319, 1.8491e-002
1090.72,344.791, 1.8558e-002
1094.72,346.258, 1.8632e-002
1098.72,347.711, 1.8706e-002
1102.72,349.317, 1.8779e-002
1106.72,350.588, 1.8844e-002
1108.22,351.09, 1.8874e-002