File: data_backup/8.1mm/fmt010sCr18.8mm.csv
#EXPORTTYPE:           ,DATA ALL
#FILE:                 ,fmtl010Crun1.ngb-sle
#FORMAT:               ,NETZSCH5
#FTYPE:                ,ANSI
#IDENTITY:             ,fmt short
#DECIMAL:              ,POINT
#SEPARATOR:            ,COMMA
#MTYPE:                ,DIL
#INSTRUMENT:           ,NETZSCH DIL 402C
#PROJECT:              ,feldspar
#DATE/TIME:            ,8/21/2019 9:53:35 AM (UTC-5)
#CORR. FILE:           ,
#TEMPCAL:              ,TCALZERO.TMX
#LABORATORY:           ,Mineral Physics
#OPERATOR:             ,PAG
#REMARK:               ,bare, norm start, for short plageioclase, fmt short probably 010
#SAMPLE:               ,fmt 3rd orientation
#SAMPLE LENGTH /mm:    ,8.776
#MATERIAL:             ,sapphire stnd
#MEASMODE:             ,Standard Expansion
#PURGE GAS 1:          ,ARGON
#FLOW RATE 1 /(ml/min):,75
#M.RANGE /µm:          ,500
#CORR. CODE:           ,010
#RANGE:                ,20.0°C/3.0(K/min)/1010.0°C
#SEGMENT:              ,S1/1
#SEG. 1:               ,20.0°C/3.0(K/min)/1010.0°C

##Temp./°C,Time/min,dL/Lo
  22.55400,  0.00000, 2.2540e-005
  26.05400,  5.89117,-4.5797e-005
  29.55400,  6.77958,-7.2492e-005
  33.05400,  7.53752,-8.1863e-005
  36.55400,  8.26129,-7.6894e-005
  40.05400,  8.98186,-6.1711e-005
  43.55400,  9.69993,-3.9634e-005
  47.05400, 10.40961,-1.4666e-005
  50.55400, 11.10079, 1.3292e-005
  54.05400, 11.77310, 4.2025e-005
  57.55400, 12.43817, 7.3859e-005
  61.05400, 13.09653, 1.0846e-004
  64.55400, 13.75466, 1.4575e-004
  68.05400, 14.41029, 1.8498e-004
  71.55400, 15.06882, 2.2678e-004
  75.05400, 15.73294, 2.7018e-004
  78.55400, 16.39825, 3.1478e-004
  82.05400, 17.06791, 3.6053e-004
  85.55400, 17.74243, 4.0733e-004
  89.05400, 18.42241, 4.5485e-004
  92.55400, 19.10705, 5.0327e-004
  96.05400, 19.79424, 5.5236e-004
  99.55400, 20.48755, 6.0255e-004
 103.054, 21.18623, 6.5242e-004
 106.554, 21.89082, 7.0259e-004
 110.054, 22.59665, 7.5263e-004
 113.554, 23.30409, 8.0345e-004
 117.054, 24.01603, 8.5473e-004
 120.554, 24.73449, 9.0622e-004
 124.054, 25.45532, 9.5761e-004
 127.554, 26.17846, 1.0097e-003
 131.054, 26.90879, 1.0611e-003
 134.554, 27.63938, 1.1139e-003
 138.054, 28.37236, 1.1659e-003
 141.554, 29.10926, 1.2182e-003
 145.054, 29.84794, 1.2706e-003
 148.554, 30.59167, 1.3234e-003
 152.054, 31.33700, 1.3760e-003
 155.554, 32.08573, 1.4291e-003
 159.054, 32.83898, 1.4823e-003
 162.554, 33.59620, 1.5353e-003
 166.054, 34.35370, 1.5890e-003
 169.554, 35.11801, 1.6424e-003
 173.054, 35.88413, 1.6960e-003
 176.554, 36.65132, 1.7501e-003
 180.054, 37.42526, 1.8037e-003
 183.554, 38.20012, 1.8572e-003
 187.054, 38.97779, 1.9108e-003
 190.554, 39.75704, 1.9649e-003
 194.054, 40.53987, 2.0185e-003
 197.554, 41.32584, 2.0717e-003
 201.054, 42.11925, 2.1262e-003
 204.554, 42.91478, 2.1797e-003
 208.054, 43.71473, 2.2337e-003
 211.554, 44.51494, 2.2895e-003
 215.054, 45.32336, 2.3466e-003
 218.554, 46.14165, 2.4037e-003
 222.054, 46.96684, 2.4594e-003
 225.554, 47.78992, 2.5135e-003
 229.054, 48.59641, 2.5648e-003
 232.554, 49.39042, 2.6140e-003
 236.054, 50.17955, 2.6639e-003
 239.554, 50.96627, 2.7149e-003
 243.054, 51.75894, 2.7671e-003
 246.554, 52.56256, 2.8204e-003
 250.054, 53.37712, 2.8739e-003
 253.554, 54.19709, 2.9279e-003
 257.054, 55.02551, 2.9813e-003
 260.554, 55.86354, 3.0356e-003
 264.054, 56.71062, 3.0896e-003
 267.554, 57.56340, 3.1437e-003
 271.054, 58.42340, 3.1984e-003
 274.554, 59.29037, 3.2527e-003
 278.054, 60.16446, 3.3073e-003
 281.554, 61.04332, 3.3608e-003
 285.054, 61.92743, 3.4154e-003
 288.554, 62.81675, 3.4697e-003
 292.054, 63.70868, 3.5236e-003
 295.554, 64.60697, 3.5788e-003
 299.054, 65.50991, 3.6349e-003
 302.554, 66.41887, 3.6880e-003
 306.054, 67.32822, 3.7430e-003
 309.554, 68.23993, 3.7986e-003
 313.054, 69.15859, 3.8535e-003
 316.554, 70.07997, 3.9076e-003
 320.054, 70.99942, 3.9622e-003
 323.554, 71.92552, 4.0160e-003
 327.054, 72.85456, 4.0704e-003
 330.554, 73.79040, 4.1248e-003
 334.054, 74.73032, 4.1791e-003
 337.554, 75.67738, 4.2336e-003
 341.054, 76.62217, 4.2880e-003
 344.554, 77.57091, 4.3419e-003
 348.054, 78.52436, 4.3953e-003
 351.554, 79.48482, 4.4499e-003
 355.054, 80.44969, 4.5052e-003
 358.554, 81.41586, 4.5594e-003
 362.054, 82.38616, 4.6121e-003
 365.554, 83.35818, 4.6663e-003
 369.054, 84.33793, 4.7204e-003
 372.554, 85.31951, 4.7752e-003
 376.054, 86.30188, 4.8291e-003
 379.554, 87.28763, 4.8817e-003
 383.054, 88.28037, 4.9365e-003
 386.554, 89.27777, 4.9918e-003
 390.054, 90.27857, 5.0462e-003
 393.554, 91.28459, 5.1003e-003
 397.054, 92.29558, 5.1551e-003
 400.554, 93.30771, 5.2091e-003
 404.054, 94.32761, 5.2618e-003
 407.554, 95.35236, 5.3161e-003
 411.054, 96.37810, 5.3707e-003
 414.554, 97.40611, 5.4251e-003
 418.054, 98.44005, 5.4799e-003
 421.554, 99.47637, 5.5329e-003
 425.054,100.515, 5.5874e-003
 428.554,101.559, 5.6416e-003
 432.054,102.605, 5.6959e-003
 435.554,103.658, 5.7494e-003
 439.054,104.714, 5.8063e-003
 442.554,105.79, 5.8648e-003
 446.054,106.873, 5.9223e-003
 449.554,107.942, 5.9742e-003
 453.054,108.979, 6.0257e-003
 456.554,110.005, 6.0767e-003
 460.054,111.039, 6.1301e-003
 463.554,112.085, 6.1857e-003
 467.054,113.145, 6.2393e-003
 470.554,114.219, 6.2941e-003
 474.054,115.3, 6.3473e-003
 477.554,116.392, 6.4028e-003
 481.054,117.492, 6.4574e-003
 484.554,118.598, 6.5128e-003
 488.054,119.711, 6.5674e-003
 491.554,120.831, 6.6230e-003
 495.054,121.954, 6.6761e-003
 498.554,123.077, 6.7315e-003
 502.054,124.209, 6.7867e-003
 505.554,125.359, 6.8464e-003
 509.054,126.52, 6.9051e-003
 512.554,127.662, 6.9566e-003
 516.054,128.765, 7.0082e-003
 519.554,129.857, 7.0599e-003
 523.054,130.961, 7.1144e-003
 526.554,132.079, 7.1698e-003
 530.054,133.212, 7.2254e-003
 533.554,134.351, 7.2808e-003
 537.054,135.505, 7.3348e-003
 540.554,136.664, 7.3904e-003
 544.054,137.832, 7.4453e-003
 547.554,139.01, 7.5019e-003
 551.054,140.185, 7.5572e-003
 554.554,141.362, 7.6131e-003
 558.054,142.546, 7.6693e-003
 561.554,143.736, 7.7241e-003
 565.054,144.926, 7.7803e-003
 568.554,146.119, 7.8370e-003
 572.054,147.311, 7.8919e-003
 575.554,148.509, 7.9487e-003
 579.054,149.716, 8.0057e-003
 582.554,150.92, 8.0599e-003
 586.054,152.123, 8.1168e-003
 589.554,153.333, 8.1743e-003
 593.054,154.544, 8.2295e-003
 596.554,155.761, 8.2868e-003
 600.054,156.983, 8.3417e-003
 603.554,158.202, 8.3986e-003
 607.054,159.425, 8.4544e-003
 610.554,160.659, 8.5141e-003
 614.054,161.924, 8.5750e-003
 617.554,163.18, 8.6322e-003
 621.054,164.394, 8.6839e-003
 624.554,165.584, 8.7395e-003
 628.054,166.784, 8.7962e-003
 631.554,167.997, 8.8504e-003
 635.054,169.226, 8.9105e-003
 638.554,170.465, 8.9650e-003
 642.054,171.711, 9.0231e-003
 645.554,172.965, 9.0808e-003
 649.054,174.226, 9.1389e-003
 652.554,175.49, 9.1935e-003
 656.054,176.757, 9.2515e-003
 659.554,178.032, 9.3073e-003
 663.054,179.304, 9.3655e-003
 666.554,180.579, 9.4225e-003
 670.054,181.867, 9.4814e-003
 673.554,183.147, 9.5388e-003
 677.054,184.424, 9.5955e-003
 680.554,185.725, 9.6562e-003
 684.054,187.059, 9.7179e-003
 687.554,188.394, 9.7767e-003
 691.054,189.67, 9.8332e-003
 694.554,190.947, 9.8899e-003
 698.054,192.248, 9.9472e-003
 701.554,193.551, 1.0004e-002
 705.054,194.869, 1.0062e-002
 708.554,196.193, 1.0121e-002
 712.054,197.523, 1.0180e-002
 715.554,198.854, 1.0237e-002
 719.054,200.187, 1.0295e-002
 722.554,201.504, 1.0353e-002
 726.054,202.843, 1.0413e-002
 729.554,204.193, 1.0471e-002
 733.054,205.533, 1.0530e-002
 736.554,206.874, 1.0589e-002
 740.054,208.212, 1.0659e-002
 743.554,209.553, 1.0719e-002
 747.054,210.894, 1.0779e-002
 750.554,212.237, 1.0839e-002
 754.054,213.608, 1.0904e-002
 757.554,215.002, 1.0969e-002
 761.054,216.341, 1.1046e-002
 764.554,217.646, 1.1103e-002
 768.054,218.954, 1.1162e-002
 771.554,220.278, 1.1221e-002
 775.054,221.606, 1.1281e-002
 778.554,222.943, 1.1341e-002
 782.054,224.288, 1.1401e-002
 785.554,225.649, 1.1465e-002
 789.054,227.016, 1.1524e-002
 792.554,228.398, 1.1585e-002
 796.054,229.839, 1.1649e-002
 799.554,231.298, 1.1710e-002
 803.054,232.763, 1.1774e-002
 806.554,234.225, 1.1838e-002
 810.054,235.708, 1.1899e-002
 813.554,237.217, 1.1965e-002
 817.054,238.713, 1.2031e-002
 820.554,240.204, 1.2096e-002
 824.054,241.611, 1.2155e-002
 827.554,242.971, 1.2214e-002
 831.054,244.346, 1.2276e-002
 834.554,245.719, 1.2334e-002
 838.054,247.085, 1.2392e-002
 841.554,248.448, 1.2454e-002
 845.054,249.807, 1.2517e-002
 848.554,251.157, 1.2576e-002
 852.054,252.508, 1.2639e-002
 855.554,253.854, 1.2701e-002
 859.054,255.205, 1.2761e-002
 862.554,256.553, 1.2824e-002
 866.054,257.904, 1.2885e-002
 869.554,259.244, 1.2946e-002
 873.054,260.624, 1.3013e-002
 876.554,262.034, 1.3080e-002
 880.054,263.396, 1.3140e-002
 883.554,264.722, 1.3203e-002
 887.054,266.011, 1.3268e-002
 890.554,267.4, 1.3335e-002
 894.054,268.767, 1.3399e-002
 897.554,270.152, 1.3464e-002
 901.054,271.554, 1.3526e-002
 904.554,272.998, 1.3593e-002
 908.054,274.486, 1.3661e-002
 911.554,276.01, 1.3729e-002
 915.054,277.547, 1.3797e-002
 918.554,279.312, 1.3872e-002
 922.054,281.047, 1.3934e-002
 925.554,282.644, 1.4011e-002
 929.054,284.023, 1.4072e-002
 932.554,285.388, 1.4137e-002
 936.054,286.777, 1.4201e-002
 939.554,288.186, 1.4269e-002
 943.054,289.515, 1.4332e-002
 946.554,290.868, 1.4393e-002
 950.054,292.216, 1.4459e-002
 953.554,293.575, 1.4525e-002
 957.054,294.899, 1.4589e-002
 960.554,296.218, 1.4652e-002
 964.054,297.511, 1.4715e-002
 967.554,298.828, 1.4782e-002
 971.054,300.159, 1.4850e-002
 974.554,301.502, 1.4918e-002
 978.054,302.829, 1.4987e-002
 981.554,304.124, 1.5056e-002
 985.054,305.396, 1.5124e-002
 988.554,306.661, 1.5189e-002
 992.054,307.934, 1.5262e-002
 995.554,309.256, 1.5330e-002
 999.054,310.492, 1.5401e-002
1002.55,311.759, 1.5470e-002
1006.05,313.039, 1.5543e-002
1009.55,314.328, 1.5616e-002
1013.05,315.631, 1.5688e-002
1016.55,316.939, 1.5758e-002
1020.05,318.234, 1.5833e-002
1023.55,319.533, 1.5909e-002
1027.05,320.786, 1.5984e-002
1030.55,322.152, 1.6060e-002
1034.05,323.456, 1.6132e-002
1037.55,324.746, 1.6205e-002
1039.55,325.461, 1.6247e-002