File: data_backup/8.1mm/moon000s3r1-10.1mm.csv
#EXPORTTYPE:           ,DATA ALL
#FILE:                 ,moonstoneSam3.ngb-sle
#FORMAT:               ,NETZSCH5
#FTYPE:                ,ANSI
#IDENTITY:             ,moonstone 3 short
#DECIMAL:              ,POINT
#SEPARATOR:            ,COMMA
#MTYPE:                ,DIL
#INSTRUMENT:           ,NETZSCH DIL 402C
#PROJECT:              ,feldspar
#DATE/TIME:            ,9/16/2019 9:41:48 AM (UTC-5)
#CORR. FILE:           ,
#TEMPCAL:              ,TCALZERO.TMX
#LABORATORY:           ,Mineral Physics
#OPERATOR:             ,PAG
#REMARK:               ,bare, norm start, for oligoclase, moonstone #3 short and reaonably thin. rectancgle, large up
#SAMPLE:               ,moonstone 3 fresh
#SAMPLE LENGTH /mm:    ,10.090
#MATERIAL:             ,sapphire stnd
#MEASMODE:             ,Standard Expansion
#PURGE GAS 1:          ,ARGON
#FLOW RATE 1 /(ml/min):,75
#M.RANGE /µm:          ,500
#CORR. CODE:           ,010
#RANGE:                ,20.0°C/3.0(K/min)/800.0°C
#SEGMENT:              ,S1/1
#SEG. 1:               ,20.0°C/3.0(K/min)/800.0°C

##Temp./°C,Time/min,dL/Lo
 22.42400,  0.00000, 2.1575e-005
 25.42400,  5.68534,-8.4632e-006
 28.42400,  6.48693,-9.2396e-006
 31.42400,  7.14526, 5.0667e-006
 34.42400,  7.76124, 3.1209e-005
 37.42400,  8.36705, 6.6927e-005
 40.42400,  8.97529, 1.1033e-004
 43.42400,  9.57836, 1.5882e-004
 46.42400, 10.17782, 2.0734e-004
 49.42400, 10.76786, 2.5424e-004
 52.42400, 11.34704, 3.0217e-004
 55.42400, 11.91840, 3.4846e-004
 58.42400, 12.48189, 3.9667e-004
 61.42400, 13.04017, 4.4789e-004
 64.42400, 13.59548, 5.0238e-004
 67.42400, 14.15283, 5.5799e-004
 70.42400, 14.71251, 6.1761e-004
 73.42400, 15.27708, 6.8116e-004
 76.42400, 15.84327, 7.4504e-004
 79.42400, 16.41223, 8.0715e-004
 82.42400, 16.98335, 8.7338e-004
 85.42400, 17.56080, 9.3947e-004
 88.42400, 18.14140, 1.0036e-003
 91.42400, 18.72535, 1.0708e-003
 94.42400, 19.31177, 1.1441e-003
 97.42400, 19.90388, 1.2156e-003
100.424, 20.49995, 1.2870e-003
103.424, 21.10057, 1.3592e-003
106.424, 21.70552, 1.4236e-003
109.424, 22.31171, 1.4876e-003
112.424, 22.91985, 1.5523e-003
115.424, 23.53132, 1.6137e-003
118.424, 24.14466, 1.6787e-003
121.424, 24.76037, 1.7443e-003
124.424, 25.38032, 1.8083e-003
127.424, 26.00398, 1.8746e-003
130.424, 26.62937, 1.9411e-003
133.424, 27.25743, 2.0070e-003
136.424, 27.89036, 2.0732e-003
139.424, 28.52385, 2.1370e-003
142.424, 29.15822, 2.2009e-003
145.424, 29.79887, 2.2674e-003
148.424, 30.43868, 2.3350e-003
151.424, 31.08106, 2.4018e-003
154.424, 31.72737, 2.4697e-003
157.424, 32.37593, 2.5364e-003
160.424, 33.02348, 2.6022e-003
163.424, 33.67347, 2.6682e-003
166.424, 34.32872, 2.7341e-003
169.424, 34.98687, 2.8004e-003
172.424, 35.64861, 2.8669e-003
175.424, 36.30957, 2.9345e-003
178.424, 36.97354, 3.0010e-003
181.424, 37.63913, 3.0657e-003
184.424, 38.30542, 3.1328e-003
187.424, 38.97520, 3.1983e-003
190.424, 39.65060, 3.2624e-003
193.424, 40.32760, 3.3268e-003
196.424, 41.00605, 3.3918e-003
199.424, 41.68779, 3.4528e-003
202.424, 42.37266, 3.5199e-003
205.424, 43.06187, 3.5873e-003
208.424, 43.75303, 3.6550e-003
211.424, 44.44610, 3.7195e-003
214.424, 45.14574, 3.7860e-003
217.424, 45.84433, 3.8509e-003
220.424, 46.54494, 3.9177e-003
223.424, 47.24992, 3.9877e-003
226.424, 47.95795, 4.0581e-003
229.424, 48.67371, 4.1275e-003
232.424, 49.39568, 4.1980e-003
235.424, 50.12154, 4.2660e-003
238.424, 50.84217, 4.3326e-003
241.424, 51.55062, 4.3958e-003
244.424, 52.24711, 4.4590e-003
247.424, 52.93592, 4.5204e-003
250.424, 53.62109, 4.5376e-003
253.424, 54.30981, 4.5826e-003
256.424, 55.00530, 4.6462e-003
259.424, 55.70703, 4.7127e-003
262.424, 56.41771, 4.7807e-003
265.424, 57.13618, 4.8469e-003
268.424, 57.86222, 4.9139e-003
271.424, 58.59375, 4.9818e-003
274.424, 59.33077, 5.0501e-003
277.424, 60.07520, 5.1183e-003
280.424, 60.82925, 5.1865e-003
283.424, 61.58996, 5.2537e-003
286.424, 62.35345, 5.3207e-003
289.424, 63.12073, 5.3895e-003
292.424, 63.89366, 5.4562e-003
295.424, 64.67070, 5.5242e-003
298.424, 65.45348, 5.5903e-003
301.424, 66.23903, 5.6582e-003
304.424, 67.02797, 5.7262e-003
307.424, 67.82100, 5.7916e-003
310.424, 68.61540, 5.8584e-003
313.424, 69.41310, 5.9240e-003
316.424, 70.21568, 5.9916e-003
319.424, 71.02175, 6.0545e-003
322.424, 71.82762, 6.1158e-003
325.424, 72.63726, 6.1354e-003
328.424, 73.45072, 6.1821e-003
331.424, 74.27038, 6.2102e-003
334.424, 75.08728, 6.2648e-003
337.424, 75.90713, 6.3364e-003
340.424, 76.73015, 6.3880e-003
343.424, 77.55236, 6.4527e-003
346.424, 78.38204, 6.5171e-003
349.424, 79.21463, 6.5841e-003
352.424, 80.04852, 6.6486e-003
355.424, 80.88441, 6.7161e-003
358.424, 81.72352, 6.7829e-003
361.424, 82.56518, 6.8487e-003
364.424, 83.41076, 6.9164e-003
367.424, 84.26339, 6.9857e-003
370.424, 85.11776, 7.0508e-003
373.424, 85.97386, 7.1201e-003
376.424, 86.83390, 7.1862e-003
379.424, 87.69261, 7.2536e-003
382.424, 88.55576, 7.3218e-003
385.424, 89.42347, 7.3910e-003
388.424, 90.28962, 7.4610e-003
391.424, 91.16383, 7.5313e-003
394.424, 92.03942, 7.5994e-003
397.424, 92.91906, 7.6700e-003
400.424, 93.80138, 7.7384e-003
403.424, 94.68625, 7.8073e-003
406.424, 95.57507, 7.8770e-003
409.424, 96.46293, 7.9494e-003
412.424, 97.35642, 8.0218e-003
415.424, 98.25332, 8.0966e-003
418.424, 99.15578, 8.1683e-003
421.424,100.061, 8.2448e-003
424.424,100.966, 8.3182e-003
427.424,101.875, 8.3945e-003
430.424,102.783, 8.4715e-003
433.424,103.695, 8.5492e-003
436.424,104.612, 8.6283e-003
439.424,105.531, 8.7100e-003
442.424,106.466, 8.7916e-003
445.424,107.41, 8.8706e-003
448.424,108.343, 8.9481e-003
451.424,109.249, 9.0249e-003
454.424,110.147, 9.1009e-003
457.424,111.045, 9.1767e-003
460.424,111.951, 9.2541e-003
463.424,112.869, 9.3339e-003
466.424,113.791, 9.4110e-003
469.424,114.72, 9.4889e-003
472.424,115.661, 9.5721e-003
475.424,116.623, 9.6533e-003
478.424,117.6, 9.7325e-003
481.424,118.564, 9.8111e-003
484.424,119.508, 9.8852e-003
487.424,120.431, 9.9626e-003
490.424,121.357, 1.0038e-002
493.424,122.296, 1.0117e-002
496.424,123.248, 1.0194e-002
499.424,124.204, 1.0273e-002
502.424,125.173, 1.0349e-002
505.424,126.148, 1.0428e-002
508.424,127.125, 1.0506e-002
511.424,128.113, 1.0583e-002
514.424,129.108, 1.0661e-002
517.424,130.101, 1.0740e-002
520.424,131.103, 1.0816e-002
523.424,132.105, 1.0894e-002
526.424,133.109, 1.0973e-002
529.424,134.123, 1.1051e-002
532.424,135.136, 1.1128e-002
535.424,136.151, 1.1206e-002
538.424,137.166, 1.1285e-002
541.424,138.189, 1.1360e-002
544.424,139.208, 1.1439e-002
547.424,140.236, 1.1518e-002
550.424,141.264, 1.1596e-002
553.424,142.291, 1.1672e-002
556.424,143.319, 1.1750e-002
559.424,144.351, 1.1830e-002
562.424,145.384, 1.1908e-002
565.424,146.419, 1.1986e-002
568.424,147.469, 1.2068e-002
571.424,148.539, 1.2150e-002
574.424,149.595, 1.2229e-002
577.424,150.621, 1.2303e-002
580.424,151.626, 1.2380e-002
583.424,152.638, 1.2459e-002
586.424,153.661, 1.2539e-002
589.424,154.694, 1.2618e-002
592.424,155.728, 1.2695e-002
595.424,156.772, 1.2774e-002
598.424,157.822, 1.2854e-002
601.424,158.878, 1.2934e-002
604.424,159.94, 1.3012e-002
607.424,161.001, 1.3092e-002
610.424,162.064, 1.3173e-002
613.424,163.136, 1.3253e-002
616.424,164.205, 1.3332e-002
619.424,165.281, 1.3413e-002
622.424,166.354, 1.3493e-002
625.424,167.428, 1.3574e-002
628.424,168.504, 1.3655e-002
631.424,169.585, 1.3733e-002
634.424,170.668, 1.3815e-002
637.424,171.754, 1.3896e-002
640.424,172.837, 1.3977e-002
643.424,173.92, 1.4059e-002
646.424,175.006, 1.4138e-002
649.424,176.099, 1.4220e-002
652.424,177.191, 1.4302e-002
655.424,178.292, 1.4386e-002
658.424,179.408, 1.4471e-002
661.424,180.529, 1.4551e-002
664.424,181.629, 1.4632e-002
667.424,182.703, 1.4712e-002
670.424,183.778, 1.4794e-002
673.424,184.852, 1.4876e-002
676.424,185.941, 1.4956e-002
679.424,187.039, 1.5038e-002
682.424,188.149, 1.5120e-002
685.424,189.263, 1.5204e-002
688.424,190.38, 1.5287e-002
691.424,191.508, 1.5367e-002
694.424,192.648, 1.5451e-002
697.424,193.79, 1.5535e-002
700.424,194.929, 1.5618e-002
703.424,196.067, 1.5701e-002
706.424,197.206, 1.5782e-002
709.424,198.348, 1.5864e-002
712.424,199.49, 1.5949e-002
715.424,200.642, 1.6035e-002
718.424,201.821, 1.6120e-002
721.424,202.983, 1.6204e-002
724.424,204.108, 1.6281e-002
727.424,205.218, 1.6363e-002
730.424,206.33, 1.6446e-002
733.424,207.451, 1.6529e-002
736.424,208.575, 1.6612e-002
739.424,209.706, 1.6695e-002
742.424,210.844, 1.6776e-002
745.424,211.987, 1.6859e-002
748.424,213.145, 1.6944e-002
751.424,214.296, 1.7027e-002
754.424,215.447, 1.7112e-002
757.424,216.604, 1.7197e-002
760.424,217.77, 1.7278e-002
763.424,218.937, 1.7363e-002
766.424,220.111, 1.7448e-002
769.424,222.051, 1.7571e-002
772.424,223.169, 1.7653e-002
775.424,224.303, 1.7737e-002
778.424,225.46, 1.7822e-002
781.424,226.655, 1.7907e-002
784.424,227.891, 1.7992e-002
787.424,229.08, 1.8075e-002
790.424,230.294, 1.8160e-002
793.424,231.481, 1.8243e-002
796.424,232.666, 1.8330e-002
799.424,233.877, 1.8415e-002
802.424,235.117, 1.8501e-002
805.424,236.409, 1.8588e-002
808.424,237.676, 1.8673e-002
811.424,238.91, 1.8761e-002
814.424,240.093, 1.8845e-002
817.424,241.253, 1.8932e-002
820.424,242.442, 1.9017e-002
823.424,243.622, 1.9102e-002
826.424,244.8, 1.9184e-002
829.424,245.964, 1.9268e-002
832.424,247.14, 1.9353e-002
835.424,248.404, 1.9446e-002
838.424,249.733, 1.9547e-002
841.424,250.746, 1.9621e-002
844.424,251.759, 1.9690e-002
847.424,252.896, 1.9771e-002
850.424,254.013, 1.9855e-002
851.424,254.392, 1.9883e-002