File: data_backup/8.1mm/oligHawk001s1r1-7.0mm.csv
#EXPORTTYPE:           ,DATA ALL
#FILE:                 ,oligHawk001sam1.ngb-sle
#FORMAT:               ,NETZSCH5
#FTYPE:                ,ANSI
#IDENTITY:             ,hawkmine 001
#DECIMAL:              ,POINT
#SEPARATOR:            ,COMMA
#MTYPE:                ,DIL
#INSTRUMENT:           ,NETZSCH DIL 402C
#PROJECT:              ,feldspar
#DATE/TIME:            ,8/23/2019 9:50:19 AM (UTC-5)
#CORR. FILE:           ,
#TEMPCAL:              ,TCALZERO.TMX
#LABORATORY:           ,Mineral Physics
#OPERATOR:             ,PAG
#REMARK:               ,bare, norm start, for short plageioclase,hawk mine trapezoid 001 face,short direction
#SAMPLE:               ,oligioclase hawk
#SAMPLE LENGTH /mm:    ,7.035
#MATERIAL:             ,sapphire stnd
#MEASMODE:             ,Standard Expansion
#PURGE GAS 1:          ,ARGON
#FLOW RATE 1 /(ml/min):,75
#M.RANGE /µm:          ,500
#CORR. CODE:           ,010
#RANGE:                ,20.0°C/3.0(K/min)/1020.0°C
#SEGMENT:              ,S1/1
#SEG. 1:               ,20.0°C/3.0(K/min)/1020.0°C

##Temp./°C,Time/min,dL/Lo
  22.08200,  0.00000, 1.9445e-005
  25.58200,  5.61765,-5.1207e-005
  29.08200,  6.49505,-9.4249e-005
  32.58200,  7.24972,-1.1669e-004
  36.08200,  7.97608,-1.2195e-004
  39.58200,  8.69882,-1.1345e-004
  43.08200,  9.41768,-9.7147e-005
  46.58200, 10.12749,-7.6199e-005
  50.08200, 10.81936,-5.2650e-005
  53.58200, 11.49551,-2.6761e-005
  57.08200, 12.15982, 1.4318e-006
  60.58200, 12.81761, 3.2411e-005
  64.08200, 13.47485, 6.7214e-005
  67.58200, 14.13306, 1.0501e-004
  71.08200, 14.79391, 1.4638e-004
  74.58200, 15.45545, 1.8845e-004
  78.08200, 16.12239, 2.3140e-004
  81.58200, 16.79220, 2.7731e-004
  85.08200, 17.46531, 3.2327e-004
  88.58200, 18.14354, 3.7030e-004
  92.08200, 18.82637, 4.1839e-004
  95.58200, 19.51515, 4.6826e-004
  99.08200, 20.21019, 5.1797e-004
 102.582, 20.90658, 5.6803e-004
 106.082, 21.60755, 6.1934e-004
 109.582, 22.31099, 6.7067e-004
 113.082, 23.02117, 7.2241e-004
 116.582, 23.73643, 7.7368e-004
 120.082, 24.45469, 8.2544e-004
 123.582, 25.17586, 8.7684e-004
 127.082, 25.89936, 9.3014e-004
 130.582, 26.62499, 9.8308e-004
 134.082, 27.35684, 1.0363e-003
 137.582, 28.09135, 1.0897e-003
 141.082, 28.82915, 1.1429e-003
 144.582, 29.56954, 1.1971e-003
 148.082, 30.31340, 1.2502e-003
 151.582, 31.05870, 1.3046e-003
 155.082, 31.80868, 1.3574e-003
 158.582, 32.56324, 1.4123e-003
 162.082, 33.32143, 1.4664e-003
 165.582, 34.07998, 1.5205e-003
 169.082, 34.84105, 1.5746e-003
 172.582, 35.60591, 1.6286e-003
 176.082, 36.37259, 1.6827e-003
 179.582, 37.14297, 1.7374e-003
 183.082, 37.91677, 1.7917e-003
 186.582, 38.69364, 1.8454e-003
 190.082, 39.47288, 1.8992e-003
 193.582, 40.25602, 1.9522e-003
 197.082, 41.04171, 2.0060e-003
 200.582, 41.83216, 2.0608e-003
 204.082, 42.62849, 2.1147e-003
 207.582, 43.42614, 2.1693e-003
 211.082, 44.22615, 2.2225e-003
 214.582, 45.03049, 2.2770e-003
 218.082, 45.83959, 2.3309e-003
 221.582, 46.64917, 2.3851e-003
 225.082, 47.46501, 2.4394e-003
 228.582, 48.28310, 2.4938e-003
 232.082, 49.10375, 2.5474e-003
 235.582, 49.92910, 2.6015e-003
 239.082, 50.75591, 2.6559e-003
 242.582, 51.58884, 2.7100e-003
 246.082, 52.42372, 2.7641e-003
 249.582, 53.26235, 2.8184e-003
 253.082, 54.10690, 2.8719e-003
 256.582, 54.95576, 2.9257e-003
 260.082, 55.80883, 2.9803e-003
 263.582, 56.66522, 3.0340e-003
 267.082, 57.52682, 3.0878e-003
 270.582, 58.38950, 3.1416e-003
 274.082, 59.26049, 3.1954e-003
 277.582, 60.13336, 3.2488e-003
 281.082, 61.00655, 3.3029e-003
 284.582, 61.88830, 3.3566e-003
 288.082, 62.77198, 3.4105e-003
 291.582, 63.65951, 3.4645e-003
 295.082, 64.54978, 3.5177e-003
 298.582, 65.44680, 3.5714e-003
 302.082, 66.34745, 3.6260e-003
 305.582, 67.25490, 3.6785e-003
 309.082, 68.16007, 3.7319e-003
 312.582, 69.07394, 3.7846e-003
 316.082, 69.98741, 3.8380e-003
 319.582, 70.90833, 3.8904e-003
 323.082, 71.83397, 3.9439e-003
 326.582, 72.76342, 3.9972e-003
 330.082, 73.69732, 4.0513e-003
 333.582, 74.63735, 4.1074e-003
 337.082, 75.58876, 4.1648e-003
 340.582, 76.54542, 4.2208e-003
 344.082, 77.49569, 4.2729e-003
 347.582, 78.42529, 4.3215e-003
 351.082, 79.34060, 4.3688e-003
 354.582, 80.25242, 4.4169e-003
 358.082, 81.17259, 4.4676e-003
 361.582, 82.10736, 4.5193e-003
 365.082, 83.05281, 4.5720e-003
 368.582, 84.00781, 4.6240e-003
 372.082, 84.97365, 4.6771e-003
 375.582, 85.94665, 4.7303e-003
 379.082, 86.92973, 4.7828e-003
 382.582, 87.92021, 4.8364e-003
 386.082, 88.91707, 4.8882e-003
 389.582, 89.92014, 4.9406e-003
 393.082, 90.92858, 4.9941e-003
 396.582, 91.94267, 5.0471e-003
 400.082, 92.95931, 5.0987e-003
 403.582, 93.98302, 5.1514e-003
 407.082, 95.00662, 5.2034e-003
 410.582, 96.03672, 5.2552e-003
 414.082, 97.07006, 5.3076e-003
 417.582, 98.10494, 5.3589e-003
 421.082, 99.14050, 5.4106e-003
 424.582,100.185, 5.4623e-003
 428.082,101.233, 5.5146e-003
 431.582,102.286, 5.5646e-003
 435.082,103.339, 5.6157e-003
 438.582,104.393, 5.6679e-003
 442.082,105.451, 5.7202e-003
 445.582,106.518, 5.7715e-003
 449.082,107.588, 5.8160e-003
 452.582,108.661, 5.8669e-003
 456.082,109.737, 5.9161e-003
 459.582,110.817, 5.9639e-003
 463.082,111.907, 6.0157e-003
 466.582,112.995, 6.0665e-003
 470.082,114.083, 6.1160e-003
 473.582,115.171, 6.1669e-003
 477.082,116.261, 6.2184e-003
 480.582,117.369, 6.2693e-003
 484.082,118.476, 6.3211e-003
 487.582,119.582, 6.3722e-003
 491.082,120.697, 6.4243e-003
 494.582,121.828, 6.4804e-003
 498.082,122.98, 6.5385e-003
 501.582,124.127, 6.5936e-003
 505.082,125.245, 6.6388e-003
 508.582,126.324, 6.6848e-003
 512.082,127.392, 6.7322e-003
 515.582,128.474, 6.7782e-003
 519.082,129.568, 6.8285e-003
 522.582,130.68, 6.8783e-003
 526.082,131.806, 6.9283e-003
 529.582,132.943, 6.9794e-003
 533.082,134.091, 7.0311e-003
 536.582,135.251, 7.0820e-003
 540.082,136.415, 7.1329e-003
 543.582,137.581, 7.1846e-003
 547.082,138.757, 7.2365e-003
 550.582,139.933, 7.2883e-003
 554.082,141.116, 7.3397e-003
 557.582,142.303, 7.3914e-003
 561.082,143.489, 7.4423e-003
 564.582,144.681, 7.4945e-003
 568.082,145.879, 7.5448e-003
 571.582,147.074, 7.5966e-003
 575.082,148.272, 7.6473e-003
 578.582,149.479, 7.6979e-003
 582.082,150.684, 7.7497e-003
 585.582,151.892, 7.8023e-003
 589.082,153.105, 7.8544e-003
 592.582,154.314, 7.9060e-003
 596.082,155.527, 7.9589e-003
 599.582,156.757, 8.0165e-003
 603.082,158.005, 8.0694e-003
 606.582,159.226, 8.1198e-003
 610.082,160.411, 8.1681e-003
 613.582,161.595, 8.2188e-003
 617.082,162.794, 8.2708e-003
 620.582,164.005, 8.3230e-003
 624.082,165.226, 8.3747e-003
 627.582,166.457, 8.4252e-003
 631.082,167.697, 8.4781e-003
 634.582,168.941, 8.5296e-003
 638.082,170.189, 8.5824e-003
 641.582,171.445, 8.6357e-003
 645.082,172.701, 8.6891e-003
 648.582,173.966, 8.7417e-003
 652.082,175.233, 8.7933e-003
 655.582,176.497, 8.8462e-003
 659.082,177.768, 8.8980e-003
 662.582,179.037, 8.9497e-003
 666.082,180.311, 9.0007e-003
 669.582,181.588, 9.0532e-003
 673.082,182.869, 9.1033e-003
 676.582,184.154, 9.1557e-003
 680.082,185.438, 9.2080e-003
 683.582,186.749, 9.2629e-003
 687.082,188.089, 9.3182e-003
 690.582,189.406, 9.3684e-003
 694.082,190.684, 9.4167e-003
 697.582,191.97, 9.4657e-003
 701.082,193.27, 9.5152e-003
 704.582,194.577, 9.5644e-003
 708.082,195.9, 9.6134e-003
 711.582,197.229, 9.6629e-003
 715.082,198.554, 9.7077e-003
 718.582,199.882, 9.7575e-003
 722.082,201.22, 9.8075e-003
 725.582,202.556, 9.8572e-003
 729.082,203.895, 9.9069e-003
 732.582,205.239, 9.9577e-003
 736.082,206.58, 1.0007e-002
 739.582,207.924, 1.0054e-002
 743.082,209.266, 1.0104e-002
 746.582,210.608, 1.0154e-002
 750.082,211.951, 1.0204e-002
 753.582,213.311, 1.0256e-002
 757.082,214.698, 1.0310e-002
 760.582,216.084, 1.0361e-002
 764.082,217.419, 1.0406e-002
 767.582,218.733, 1.0454e-002
 771.082,220.052, 1.0502e-002
 774.582,221.38, 1.0551e-002
 778.082,222.717, 1.0602e-002
 781.582,224.069, 1.0650e-002
 785.082,225.423, 1.0701e-002
 788.582,226.786, 1.0751e-002
 792.082,228.211, 1.0800e-002
 795.582,229.655, 1.0850e-002
 799.082,231.131, 1.0901e-002
 802.582,232.735, 1.0961e-002
 806.082,234.264, 1.1014e-002
 809.582,235.76, 1.1060e-002
 813.082,237.223, 1.1109e-002
 816.582,238.637, 1.1152e-002
 820.082,240.038, 1.1199e-002
 823.582,241.458, 1.1246e-002
 827.082,242.86, 1.1294e-002
 830.582,244.252, 1.1338e-002
 834.082,245.631, 1.1385e-002
 837.582,247, 1.1432e-002
 841.082,248.36, 1.1481e-002
 844.582,249.715, 1.1527e-002
 848.082,251.073, 1.1574e-002
 851.582,252.424, 1.1623e-002
 855.082,253.795, 1.1672e-002
 858.582,255.178, 1.1721e-002
 862.082,256.576, 1.1777e-002
 865.582,258.074, 1.1825e-002
 869.082,259.616, 1.1875e-002
 872.582,260.996, 1.1917e-002
 876.082,262.309, 1.1966e-002
 879.582,263.666, 1.2011e-002
 883.082,265.029, 1.2061e-002
 886.582,266.402, 1.2113e-002
 890.082,267.791, 1.2164e-002
 893.582,269.171, 1.2245e-002
 897.082,270.548, 1.2394e-002
 900.582,271.919, 1.3470e-002
 904.082,273.323, 1.4775e-002
 907.582,274.737, 1.5949e-002
 911.082,276.242, 1.7330e-002
 914.582,278.021, 1.8009e-002
 918.082,279.821, 1.8480e-002
 921.582,281.15, 1.8677e-002
 925.082,282.466, 1.8889e-002
 928.582,283.787, 1.9078e-002
 932.082,285.131, 1.9219e-002
 935.582,286.473, 1.9411e-002
 939.082,287.807, 1.9563e-002
 942.582,289.144, 1.9684e-002
 946.082,290.482, 1.9795e-002
 949.582,291.808, 1.9878e-002
 953.082,293.109, 1.9955e-002
 956.582,294.4, 2.0027e-002
 960.082,295.735, 2.0107e-002
 963.582,297.073, 2.0178e-002
 967.082,298.43, 2.0251e-002
 970.582,299.711, 2.0319e-002
 974.082,300.968, 2.0390e-002
 977.582,302.249, 2.0462e-002
 981.082,303.536, 2.0536e-002
 984.582,304.809, 2.0607e-002
 988.082,306.081, 2.0680e-002
 991.582,307.384, 2.0752e-002
 995.082,308.683, 2.0821e-002
 998.582,309.976, 2.0888e-002
1002.08,311.288, 2.0953e-002
1005.58,312.58, 2.1015e-002
1009.08,313.899, 2.1077e-002
1011.08,314.65, 2.1111e-002