File: data_backup/8.1mm/oligHawk001s1r5-7.0mm.csv
#EXPORTTYPE:           ,DATA ALL
#FILE:                 ,oligHawk001s1run5.ngb-sle
#FORMAT:               ,NETZSCH5
#FTYPE:                ,ANSI
#IDENTITY:             ,oligoclase hawk mine
#DECIMAL:              ,POINT
#SEPARATOR:            ,COMMA
#MTYPE:                ,DIL
#INSTRUMENT:           ,NETZSCH DIL 402C
#PROJECT:              ,feldspar
#DATE/TIME:            ,8/27/2019 9:40:21 AM (UTC-5)
#CORR. FILE:           ,
#TEMPCAL:              ,TCALZERO.TMX
#LABORATORY:           ,Mineral Physics
#OPERATOR:             ,PAG
#REMARK:               ,bare, norm start, for short plageioclase, sapphire, run 5 of hawk mine001 shortie
#SAMPLE:               ,hawk 001 run5
#SAMPLE LENGTH /mm:    ,6.991
#MATERIAL:             ,sapphire stnd
#MEASMODE:             ,Standard Expansion
#PURGE GAS 1:          ,ARGON
#FLOW RATE 1 /(ml/min):,75
#M.RANGE /µm:          ,500
#CORR. CODE:           ,010
#RANGE:                ,20.0°C/3.0(K/min)/1010.0°C
#SEGMENT:              ,S1/1
#SEG. 1:               ,20.0°C/3.0(K/min)/1010.0°C

##Temp./°C,Time/min,dL/Lo,Alpha/(1/K)
  22.64300,  0.00000, 2.4370e-005, 1.5240e-005
  27.64300,  6.24564,-7.2726e-005,-1.2803e-005
  32.64300,  7.34400,-1.1733e-004,-4.1331e-006
  37.64300,  8.34940,-1.2446e-004, 8.2427e-007
  42.64300,  9.35684,-1.0803e-004, 4.2183e-006
  47.64300, 10.35563,-7.8801e-005, 6.9699e-006
  52.64300, 11.32416,-4.5238e-005, 7.1557e-006
  57.64300, 12.26838,-6.1439e-006, 7.8027e-006
  62.64300, 13.19857, 3.9981e-005, 1.0112e-005
  67.64300, 14.13050, 9.3412e-005, 1.1476e-005
  72.64300, 15.06870, 1.5219e-004, 1.2857e-005
  77.64300, 16.01831, 2.1694e-004, 1.2926e-005
  82.64300, 16.97613, 2.8244e-004, 1.3926e-005
  87.64300, 17.94638, 3.5103e-004, 1.3405e-005
  92.64300, 18.92495, 4.2116e-004, 1.4393e-005
  97.64300, 19.91233, 4.9310e-004, 1.4214e-005
 102.643, 20.91410, 5.6542e-004, 1.3766e-005
 107.643, 21.92121, 6.3759e-004, 1.4743e-005
 112.643, 22.93816, 7.1219e-004, 1.4550e-005
 117.643, 23.96479, 7.8721e-004, 1.4657e-005
 122.643, 24.99833, 8.6104e-004, 1.5389e-005
 127.643, 26.03760, 9.3617e-004, 1.5069e-005
 132.643, 27.08331, 1.0105e-003, 1.3686e-005
 137.643, 28.13552, 1.0872e-003, 1.5079e-005
 142.643, 29.19273, 1.1635e-003, 1.5219e-005
 147.643, 30.25750, 1.2401e-003, 1.5225e-005
 152.643, 31.33367, 1.3167e-003, 1.5539e-005
 157.643, 32.41081, 1.3937e-003, 1.4950e-005
 162.643, 33.49156, 1.4705e-003, 1.5011e-005
 167.643, 34.57948, 1.5479e-003, 1.5427e-005
 172.643, 35.67024, 1.6248e-003, 1.5796e-005
 177.643, 36.77019, 1.7032e-003, 1.5809e-005
 182.643, 37.88061, 1.7807e-003, 1.5159e-005
 187.643, 38.99382, 1.8593e-003, 1.5509e-005
 192.643, 40.11279, 1.9366e-003, 1.5971e-005
 197.643, 41.23624, 2.0128e-003, 1.5906e-005
 202.643, 42.36963, 2.0912e-003, 1.5953e-005
 207.643, 43.50959, 2.1695e-003, 1.4757e-005
 212.643, 44.65408, 2.2468e-003, 1.5887e-005
 217.643, 45.80764, 2.3252e-003, 1.5249e-005
 222.643, 46.96868, 2.4011e-003, 1.5331e-005
 227.643, 48.13597, 2.4792e-003, 1.6173e-005
 232.643, 49.31330, 2.5567e-003, 1.5762e-005
 237.643, 50.49743, 2.6347e-003, 1.5293e-005
 242.643, 51.68834, 2.7121e-003, 1.5215e-005
 247.643, 52.88542, 2.7905e-003, 1.5291e-005
 252.643, 54.08966, 2.8676e-003, 1.5076e-005
 257.643, 55.30261, 2.9455e-003, 1.5138e-005
 262.643, 56.52694, 3.0225e-003, 1.6111e-005
 267.643, 57.75486, 3.1003e-003, 1.5711e-005
 272.643, 58.98999, 3.1779e-003, 1.6111e-005
 277.643, 60.23325, 3.2547e-003, 1.5733e-005
 282.643, 61.48666, 3.3315e-003, 1.5102e-005
 287.643, 62.74855, 3.4089e-003, 1.6222e-005
 292.643, 64.01791, 3.4857e-003, 1.5525e-005
 297.643, 65.29691, 3.5636e-003, 1.6086e-005
 302.643, 66.58092, 3.6397e-003, 1.4833e-005
 307.643, 67.87566, 3.7165e-003, 1.4346e-005
 312.643, 69.17872, 3.7931e-003, 1.5515e-005
 317.643, 70.49079, 3.8703e-003, 1.4620e-005
 322.643, 71.81107, 3.9471e-003, 1.5664e-005
 327.643, 73.14103, 4.0232e-003, 1.4718e-005
 332.643, 74.48066, 4.0990e-003, 1.5983e-005
 337.643, 75.82156, 4.1757e-003, 1.5224e-005
 342.643, 77.17339, 4.2511e-003, 1.5995e-005
 347.643, 78.53383, 4.3280e-003, 1.5748e-005
 352.643, 79.90522, 4.4055e-003, 1.6541e-005
 357.643, 81.29381, 4.4874e-003, 1.6752e-005
 362.643, 82.69950, 4.5676e-003, 1.4953e-005
 367.643, 84.07851, 4.6387e-003, 1.3168e-005
 372.643, 85.41647, 4.7061e-003, 1.3778e-005
 377.643, 86.75516, 4.7776e-003, 1.4886e-005
 382.643, 88.12083, 4.8523e-003, 1.4677e-005
 387.643, 89.51171, 4.9274e-003, 1.4773e-005
 392.643, 90.92294, 5.0026e-003, 1.4622e-005
 397.643, 92.35220, 5.0777e-003, 1.4648e-005
 402.643, 93.80028, 5.1537e-003, 1.4645e-005
 407.643, 95.26274, 5.2282e-003, 1.5066e-005
 412.643, 96.73372, 5.3033e-003, 1.4522e-005
 417.643, 98.21229, 5.3778e-003, 1.5565e-005
 422.643, 99.69825, 5.4517e-003, 1.5415e-005
 427.643,101.194, 5.5267e-003, 1.5228e-005
 432.643,102.701, 5.6013e-003, 1.5308e-005
 437.643,104.208, 5.6748e-003, 1.4999e-005
 442.643,105.724, 5.7486e-003, 1.5759e-005
 447.643,107.249, 5.8232e-003, 1.5788e-005
 452.643,108.782, 5.8973e-003, 1.4257e-005
 457.643,110.321, 5.9711e-003, 1.6114e-005
 462.643,111.876, 6.0507e-003, 1.6254e-005
 467.643,113.462, 6.1290e-003, 1.4868e-005
 472.643,115.002, 6.1975e-003, 1.2585e-005
 477.643,116.505, 6.2649e-003, 1.4085e-005
 482.643,118.021, 6.3360e-003, 1.3912e-005
 487.643,119.562, 6.4072e-003, 1.3487e-005
 492.643,121.129, 6.4804e-003, 1.4402e-005
 497.643,122.717, 6.5531e-003, 1.5440e-005
 502.643,124.319, 6.6251e-003, 1.4019e-005
 507.643,125.937, 6.6984e-003, 1.4302e-005
 512.643,127.564, 6.7703e-003, 1.5016e-005
 517.643,129.196, 6.8435e-003, 1.4025e-005
 522.643,130.84, 6.9164e-003, 1.5068e-005
 527.643,132.482, 6.9885e-003, 1.3743e-005
 532.643,134.128, 7.0614e-003, 1.3851e-005
 537.643,135.784, 7.1354e-003, 1.4731e-005
 542.643,137.444, 7.2075e-003, 1.5045e-005
 547.643,139.111, 7.2813e-003, 1.4386e-005
 552.643,140.791, 7.3535e-003, 1.4739e-005
 557.643,142.467, 7.4259e-003, 1.5847e-005
 562.643,144.151, 7.4990e-003, 1.3990e-005
 567.643,145.847, 7.5719e-003, 1.5310e-005
 572.643,147.551, 7.6455e-003, 1.4887e-005
 577.643,149.263, 7.7194e-003, 1.5323e-005
 582.643,151.011, 7.8001e-003, 1.5945e-005
 587.643,152.75, 7.8723e-003, 1.3465e-005
 592.643,154.419, 7.9401e-003, 1.3782e-005
 597.643,156.097, 8.0126e-003, 1.5088e-005
 602.643,157.804, 8.0849e-003, 1.4578e-005
 607.643,159.53, 8.1577e-003, 1.4414e-005
 612.643,161.275, 8.2313e-003, 1.4003e-005
 617.643,163.031, 8.3037e-003, 1.5760e-005
 622.643,164.796, 8.3764e-003, 1.3869e-005
 627.643,166.574, 8.4497e-003, 1.5838e-005
 632.643,168.353, 8.5221e-003, 1.6281e-005
 637.643,170.143, 8.5947e-003, 1.4347e-005
 642.643,171.93, 8.6670e-003, 1.4271e-005
 647.643,173.731, 8.7394e-003, 1.3842e-005
 652.643,175.532, 8.8115e-003, 1.4938e-005
 657.643,177.341, 8.8838e-003, 1.4610e-005
 662.643,179.151, 8.9553e-003, 1.5173e-005
 667.643,180.972, 9.0280e-003, 1.4527e-005
 672.643,182.833, 9.1067e-003, 1.5903e-005
 677.643,184.7, 9.1800e-003, 1.3189e-005
 682.643,186.495, 9.2479e-003, 1.4187e-005
 687.643,188.301, 9.3187e-003, 1.2511e-005
 692.643,190.136, 9.3909e-003, 1.4935e-005
 697.643,191.99, 9.4631e-003, 1.4272e-005
 702.643,193.884, 9.5364e-003, 1.4201e-005
 707.643,195.782, 9.6084e-003, 1.3125e-005
 712.643,197.691, 9.6799e-003, 1.3787e-005
 717.643,199.607, 9.7522e-003, 1.3672e-005
 722.643,201.514, 9.8244e-003, 1.4383e-005
 727.643,203.423, 9.8970e-003, 1.4570e-005
 732.643,205.343, 9.9701e-003, 1.6123e-005
 737.643,207.304, 1.0048e-002, 1.5047e-005
 742.643,209.243, 1.0119e-002, 1.3819e-005
 747.643,211.104, 1.0187e-002, 1.2864e-005
 752.643,212.967, 1.0258e-002, 1.4991e-005
 757.643,214.863, 1.0329e-002, 1.4738e-005
 762.643,216.768, 1.0399e-002, 1.3598e-005
 767.643,218.685, 1.0470e-002, 1.3574e-005
 772.643,220.612, 1.0541e-002, 1.3315e-005
 777.643,222.548, 1.0613e-002, 1.5477e-005
 782.643,224.489, 1.0684e-002, 1.3375e-005
 787.643,226.441, 1.0757e-002, 1.4720e-005
 792.643,228.448, 1.0832e-002, 1.4332e-005
 797.643,230.568, 1.0907e-002, 1.7644e-005
 802.643,232.742, 1.0984e-002, 1.7216e-005
 807.643,234.985, 1.1061e-002, 1.3877e-005
 812.643,237.079, 1.1128e-002, 1.2287e-005
 817.643,239.084, 1.1194e-002, 1.3376e-005
 822.643,241.069, 1.1261e-002, 1.4886e-005
 827.643,243.065, 1.1329e-002, 1.3834e-005
 832.643,245.035, 1.1395e-002, 1.4047e-005
 837.643,246.986, 1.1462e-002, 1.3008e-005
 842.643,248.919, 1.1530e-002, 1.4889e-005
 847.643,250.844, 1.1598e-002, 1.3868e-005
 852.643,252.759, 1.1665e-002, 1.4367e-005
 857.643,254.679, 1.1737e-002, 1.4477e-005
 862.643,256.672, 1.1812e-002, 1.3947e-005
 867.643,258.6, 1.1880e-002, 1.3358e-005
 872.643,260.488, 1.1948e-002, 1.4332e-005
 877.643,262.413, 1.2016e-002, 1.3971e-005
 882.643,264.218, 1.2081e-002, 1.6510e-005
 887.643,266.211, 1.2152e-002, 1.4019e-005
 892.643,268.194, 1.2222e-002, 1.4828e-005
 897.643,270.216, 1.2291e-002, 1.4435e-005
 902.643,272.276, 1.2363e-002, 1.3492e-005
 907.643,274.494, 1.2439e-002, 1.7235e-005
 912.643,276.804, 1.2513e-002, 1.7149e-005
 917.643,279.653, 1.2591e-002, 7.6248e-006
 922.643,281.607, 1.2647e-002, 1.2252e-005
 927.643,283.471, 1.2708e-002, 1.3094e-005
 932.643,285.444, 1.2775e-002, 1.2176e-005
 937.643,287.34, 1.2838e-002, 1.6016e-005
 942.643,289.318, 1.2902e-002, 1.0881e-005
 947.643,291.174, 1.2967e-002, 1.3990e-005
 952.643,293.073, 1.3038e-002, 1.5408e-005
 957.643,295.004, 1.3106e-002, 1.3794e-005
 962.643,296.87, 1.3171e-002, 1.2047e-005
 967.643,298.686, 1.3234e-002, 1.1706e-005
 972.643,300.503, 1.3303e-002, 1.3352e-005
 977.643,302.345, 1.3369e-002, 1.2866e-005
 982.643,304.184, 1.3437e-002, 1.5214e-005
 987.643,306.037, 1.3503e-002, 1.2497e-005
 992.643,307.882, 1.3574e-002, 1.3603e-005
 997.643,309.69, 1.3640e-002, 1.4209e-005
1002.64,311.614, 1.3716e-002, 1.4514e-005
1007.64,313.495, 1.3785e-002, 1.2778e-005
1012.64,315.306, 1.3851e-002, 1.3026e-005
1017.64,317.115, 1.3919e-002, 1.2498e-005
1022.64,318.981, 1.3988e-002, 1.3928e-005
1027.64,320.84, 1.4056e-002, 1.2159e-005
1032.64,322.741, 1.4124e-002, 1.2665e-005
1037.64,324.583, 1.4191e-002, 1.2055e-005
1042.64,326.503, 1.4258e-002, 1.2129e-005
1047.64,328.323, 1.4327e-002, 1.4973e-005
1049.64,329.062, 1.4358e-002, 1.5721e-005