File: data_backup/8.1mm/oligTanz010s2r1-9.5mm.csv
#EXPORTTYPE:           ,DATA ALL
#FILE:                 ,oligTanz010s2r1.ngb-sle
#FORMAT:               ,NETZSCH5
#FTYPE:                ,ANSI
#IDENTITY:             ,sunstone peristerite
#DECIMAL:              ,POINT
#SEPARATOR:            ,COMMA
#MTYPE:                ,DIL
#INSTRUMENT:           ,NETZSCH DIL 402C
#PROJECT:              ,feldspar
#DATE/TIME:            ,8/28/2019 10:01:21 AM (UTC-5)
#CORR. FILE:           ,
#TEMPCAL:              ,TCALZERO.TMX
#LABORATORY:           ,Mineral Physics
#OPERATOR:             ,PAG
#REMARK:               ,bare, norm start, for oligoclase sunstone peristerite perp to lamella, 010 blocky shape
#SAMPLE:               ,oligTanz010sam2
#SAMPLE LENGTH /mm:    ,9.477
#MATERIAL:             ,sapphire stnd
#MEASMODE:             ,Standard Expansion
#PURGE GAS 1:          ,ARGON
#FLOW RATE 1 /(ml/min):,75
#M.RANGE /µm:          ,500
#CORR. CODE:           ,010
#RANGE:                ,20.0°C/3.0(K/min)/1050.0°C
#SEGMENT:              ,S1/1
#SEG. 1:               ,20.0°C/3.0(K/min)/1050.0°C

##Temp./°C,Time/min,dL/Lo,Alpha/(1/K)
  22.38900,  0.00000, 2.1575e-005, 1.8705e-005
  27.38900,  6.15686,-4.0272e-005,-8.7929e-006
  32.38900,  7.28117,-6.6286e-005,-1.7118e-006
  37.38900,  8.31570,-6.3536e-005, 3.2364e-006
  42.38900,  9.33740,-4.0685e-005, 5.5457e-006
  47.38900, 10.34895,-1.0167e-005, 6.6162e-006
  52.38900, 11.32488, 2.4272e-005, 7.3548e-006
  57.38900, 12.27337, 6.3513e-005, 7.6890e-006
  62.38900, 13.20999, 1.0665e-004, 9.5447e-006
  67.38900, 14.14691, 1.5639e-004, 1.0462e-005
  72.38900, 15.08699, 2.0932e-004, 1.0695e-005
  77.38900, 16.03551, 2.6655e-004, 1.1245e-005
  82.38900, 16.99272, 3.2519e-004, 1.2071e-005
  87.38900, 17.95835, 3.8567e-004, 1.2428e-005
  92.38900, 18.93154, 4.4769e-004, 1.2909e-005
  97.38900, 19.91761, 5.1114e-004, 1.3123e-005
 102.389, 20.91110, 5.7532e-004, 1.3082e-005
 107.389, 21.91645, 6.4039e-004, 1.2723e-005
 112.389, 22.93261, 7.0595e-004, 1.3175e-005
 117.389, 23.95222, 7.7192e-004, 1.3333e-005
 122.389, 24.97830, 8.3859e-004, 1.3260e-005
 127.389, 26.01174, 9.0554e-004, 1.3991e-005
 132.389, 27.05294, 9.7340e-004, 1.3598e-005
 137.389, 28.09821, 1.0410e-003, 1.3710e-005
 142.389, 29.15372, 1.1094e-003, 1.3477e-005
 147.389, 30.21537, 1.1779e-003, 1.3673e-005
 152.389, 31.28195, 1.2466e-003, 1.3612e-005
 157.389, 32.35485, 1.3150e-003, 1.3723e-005
 162.389, 33.43120, 1.3842e-003, 1.3519e-005
 167.389, 34.51571, 1.4531e-003, 1.3999e-005
 172.389, 35.60677, 1.5219e-003, 1.3944e-005
 177.389, 36.70586, 1.5937e-003, 1.3918e-005
 182.389, 37.80970, 1.6667e-003, 1.4387e-005
 187.389, 38.92103, 1.7366e-003, 1.3860e-005
 192.389, 40.03826, 1.8096e-003, 1.3635e-005
 197.389, 41.16269, 1.8795e-003, 1.3682e-005
 202.389, 42.29348, 1.9546e-003, 1.3736e-005
 207.389, 43.43209, 2.0263e-003, 1.4074e-005
 212.389, 44.57659, 2.0980e-003, 1.4196e-005
 217.389, 45.73077, 2.1698e-003, 1.7462e-005
 222.389, 46.89058, 2.2425e-003, 1.7764e-005
 227.389, 48.05761, 2.3121e-003, 1.4290e-005
 232.389, 49.23172, 2.3846e-003, 1.4277e-005
 237.389, 50.41576, 2.4580e-003, 1.3992e-005
 242.389, 51.60364, 2.5304e-003, 1.4192e-005
 247.389, 52.79892, 2.6027e-003, 1.4117e-005
 252.389, 54.00386, 2.6739e-003, 1.3876e-005
 257.389, 55.21313, 2.7458e-003, 1.5031e-005
 262.389, 56.43328, 2.8185e-003, 1.5691e-005
 267.389, 57.66157, 2.8919e-003, 1.3982e-005
 272.389, 58.89776, 2.9631e-003, 1.3967e-005
 277.389, 60.13995, 3.0353e-003, 1.4209e-005
 282.389, 61.38941, 3.1088e-003, 1.3681e-005
 287.389, 62.65072, 3.1814e-003, 1.4158e-005
 292.389, 63.91892, 3.2536e-003, 1.4399e-005
 297.389, 65.19349, 3.3262e-003, 1.4350e-005
 302.389, 66.48172, 3.3983e-003, 1.4414e-005
 307.389, 67.77482, 3.4720e-003, 1.4073e-005
 312.389, 69.07779, 3.5424e-003, 1.3699e-005
 317.389, 70.38818, 3.6149e-003, 1.3865e-005
 322.389, 71.70575, 3.6867e-003, 1.4147e-005
 327.389, 73.03256, 3.7582e-003, 1.3902e-005
 332.389, 74.36542, 3.8310e-003, 1.4537e-005
 337.389, 75.71419, 3.9026e-003, 1.5349e-005
 342.389, 77.06697, 3.9751e-003, 1.4341e-005
 347.389, 78.43467, 4.0502e-003, 1.6587e-005
 352.389, 79.82468, 4.1264e-003, 1.4663e-005
 357.389, 81.20313, 4.1960e-003, 1.3416e-005
 362.389, 82.53910, 4.2623e-003, 1.3258e-005
 367.389, 83.86078, 4.3295e-003, 1.3533e-005
 372.389, 85.20082, 4.3998e-003, 1.4411e-005
 377.389, 86.56992, 4.4707e-003, 1.4289e-005
 382.389, 87.95866, 4.5417e-003, 1.4221e-005
 387.389, 89.36542, 4.6131e-003, 1.4491e-005
 392.389, 90.79128, 4.6848e-003, 1.3756e-005
 397.389, 92.23141, 4.7566e-003, 1.4748e-005
 402.389, 93.68555, 4.8273e-003, 1.3522e-005
 407.389, 95.14620, 4.8985e-003, 1.3233e-005
 412.389, 96.61700, 4.9692e-003, 1.3645e-005
 417.389, 98.09760, 5.0405e-003, 1.4798e-005
 422.389, 99.58488, 5.1112e-003, 1.4058e-005
 427.389,101.079, 5.1815e-003, 1.3995e-005
 432.389,102.583, 5.2524e-003, 1.3996e-005
 437.389,104.092, 5.3230e-003, 1.4413e-005
 442.389,105.611, 5.3935e-003, 1.4111e-005
 447.389,107.139, 5.4639e-003, 1.3497e-005
 452.389,108.67, 5.5340e-003, 1.3665e-005
 457.389,110.206, 5.6046e-003, 1.4069e-005
 462.389,111.751, 5.6756e-003, 1.4351e-005
 467.389,113.308, 5.7465e-003, 1.4308e-005
 472.389,114.87, 5.8168e-003, 1.4138e-005
 477.389,116.441, 5.8880e-003, 1.4404e-005
 482.389,118.021, 5.9585e-003, 1.4663e-005
 487.389,119.604, 6.0290e-003, 1.4109e-005
 492.389,121.199, 6.1004e-003, 1.4514e-005
 497.389,122.797, 6.1705e-003, 1.4004e-005
 502.389,124.402, 6.2419e-003, 1.4134e-005
 507.389,126.032, 6.3166e-003, 1.4843e-005
 512.389,127.677, 6.3894e-003, 1.5080e-005
 517.389,129.267, 6.4556e-003, 1.3536e-005
 522.389,130.824, 6.5240e-003, 1.4030e-005
 527.389,132.413, 6.5953e-003, 1.3999e-005
 532.389,134.027, 6.6661e-003, 1.4758e-005
 537.389,135.662, 6.7380e-003, 1.3735e-005
 542.389,137.32, 6.8098e-003, 1.3852e-005
 547.389,138.985, 6.8818e-003, 1.4371e-005
 552.389,140.666, 6.9539e-003, 1.4371e-005
 557.389,142.345, 7.0262e-003, 1.5363e-005
 562.389,144.053, 7.1029e-003, 1.5193e-005
 567.389,145.791, 7.1782e-003, 1.3558e-005
 572.389,147.462, 7.2455e-003, 1.3685e-005
 577.389,149.096, 7.3157e-003, 1.4569e-005
 582.389,150.762, 7.3879e-003, 1.4341e-005
 587.389,152.457, 7.4602e-003, 1.4005e-005
 592.389,154.164, 7.5331e-003, 1.5242e-005
 597.389,155.893, 7.6069e-003, 1.4638e-005
 602.389,157.637, 7.6808e-003, 1.4754e-005
 607.389,159.386, 7.7546e-003, 1.4469e-005
 612.389,161.145, 7.8288e-003, 1.4700e-005
 617.389,162.91, 7.9044e-003, 1.5705e-005
 622.389,164.681, 7.9789e-003, 1.4738e-005
 627.389,166.453, 8.0537e-003, 1.5436e-005
 632.389,168.231, 8.1297e-003, 1.5644e-005
 637.389,170.012, 8.2056e-003, 1.4532e-005
 642.389,171.808, 8.2821e-003, 1.5271e-005
 647.389,173.605, 8.3589e-003, 1.4897e-005
 652.389,175.405, 8.4362e-003, 1.6258e-005
 657.389,177.253, 8.5182e-003, 1.6056e-005
 662.389,179.087, 8.5929e-003, 1.4510e-005
 667.389,180.849, 8.6655e-003, 1.4042e-005
 672.389,182.623, 8.7405e-003, 1.4065e-005
 677.389,184.429, 8.8158e-003, 1.5121e-005
 682.389,186.255, 8.8913e-003, 1.4698e-005
 687.389,188.099, 8.9663e-003, 1.4255e-005
 692.389,189.953, 9.0415e-003, 1.5963e-005
 697.389,191.833, 9.1168e-003, 1.5724e-005
 702.389,193.735, 9.1922e-003, 1.5055e-005
 707.389,195.65, 9.2664e-003, 1.4268e-005
 712.389,197.569, 9.3401e-003, 1.4015e-005
 717.389,199.489, 9.4136e-003, 1.3725e-005
 722.389,201.401, 9.4869e-003, 1.4801e-005
 727.389,203.306, 9.5600e-003, 1.5199e-005
 732.389,205.253, 9.6385e-003, 1.5368e-005
 737.389,207.218, 9.7114e-003, 1.3292e-005
 742.389,209.083, 9.7821e-003, 1.3871e-005
 747.389,210.955, 9.8557e-003, 1.4893e-005
 752.389,212.894, 9.9332e-003, 1.5050e-005
 757.389,214.829, 1.0005e-002, 1.4302e-005
 762.389,216.687, 1.0075e-002, 1.3575e-005
 767.389,218.558, 1.0148e-002, 1.4346e-005
 772.389,220.458, 1.0221e-002, 1.5291e-005
 777.389,222.376, 1.0294e-002, 1.5586e-005
 782.389,224.308, 1.0367e-002, 1.5767e-005
 787.389,226.259, 1.0440e-002, 1.5407e-005
 792.389,228.223, 1.0515e-002, 1.5138e-005
 797.389,230.275, 1.0591e-002, 1.4571e-005
 802.389,232.47, 1.0673e-002, 1.8590e-005
 807.389,234.683, 1.0752e-002, 1.5543e-005
 812.389,236.837, 1.0827e-002, 1.5160e-005
 817.389,238.905, 1.0899e-002, 1.4372e-005
 822.389,240.906, 1.0971e-002, 1.4265e-005
 827.389,242.925, 1.1044e-002, 1.4307e-005
 832.389,244.92, 1.1117e-002, 1.4193e-005
 837.389,246.894, 1.1190e-002, 1.5397e-005
 842.389,248.845, 1.1264e-002, 1.5279e-005
 847.389,250.781, 1.1338e-002, 1.5130e-005
 852.389,252.707, 1.1414e-002, 1.6180e-005
 857.389,254.738, 1.1495e-002, 1.5905e-005
 862.389,256.716, 1.1571e-002, 1.4340e-005
 867.389,258.751, 1.1650e-002, 1.5587e-005
 872.389,260.8, 1.1725e-002, 1.4010e-005
 877.389,262.744, 1.1802e-002, 1.6284e-005
 882.389,264.718, 1.1878e-002, 1.5688e-005
 887.389,266.702, 1.1956e-002, 1.5071e-005
 892.389,268.704, 1.2035e-002, 1.5176e-005
 897.389,270.684, 1.2113e-002, 1.5906e-005
 902.389,272.689, 1.2193e-002, 1.5715e-005
 907.389,274.782, 1.2278e-002, 1.7606e-005
 912.389,277.021, 1.2363e-002, 1.5902e-005
 917.389,279.691, 1.2445e-002, 1.1746e-005
 922.389,281.566, 1.2518e-002, 1.5498e-005
 927.389,283.435, 1.2596e-002, 1.5322e-005
 932.389,285.368, 1.2675e-002, 1.5350e-005
 937.389,287.316, 1.2754e-002, 1.5721e-005
 942.389,289.216, 1.2831e-002, 1.5279e-005
 947.389,291.087, 1.2911e-002, 1.6014e-005
 952.389,292.934, 1.2991e-002, 1.7115e-005
 957.389,294.873, 1.3077e-002, 1.6245e-005
 962.389,296.785, 1.3158e-002, 1.6522e-005
 967.389,298.586, 1.3237e-002, 1.6332e-005
 972.389,300.436, 1.3318e-002, 1.5325e-005
 977.389,302.253, 1.3401e-002, 1.7432e-005
 982.389,304.118, 1.3483e-002, 1.6739e-005
 987.389,306, 1.3567e-002, 1.6677e-005
 992.389,307.876, 1.3652e-002, 1.7859e-005
 997.389,309.77, 1.3740e-002, 1.7802e-005
1002.39,311.644, 1.3827e-002, 1.7491e-005
1007.39,313.487, 1.3911e-002, 1.6999e-005
1012.39,315.311, 1.3995e-002, 1.6424e-005
1017.39,317.138, 1.4081e-002, 1.6986e-005
1022.39,319.016, 1.4170e-002, 1.7344e-005
1027.39,320.94, 1.4258e-002, 1.6830e-005
1032.39,322.768, 1.4348e-002, 1.8251e-005
1037.39,324.761, 1.4442e-002, 1.4812e-005
1042.39,326.503, 1.4530e-002, 1.9347e-005
1047.39,328.355, 1.4623e-002, 1.6892e-005
1052.39,330.165, 1.4714e-002, 1.6987e-005
1057.39,331.987, 1.4811e-002, 2.0010e-005
1062.39,333.876, 1.4906e-002, 1.9330e-005
1067.39,335.605, 1.5002e-002, 2.2322e-005
1072.39,337.505, 1.5102e-002, 1.9207e-005