File: data_backup/8.1mm/oligHawk010s1r4-8.25mm.csv
#EXPORTTYPE:           ,DATA ALL
#FILE:                 ,oligHawk010s1ru4.ngb-sle
#FORMAT:               ,NETZSCH5
#FTYPE:                ,ANSI
#IDENTITY:             ,oligoclase
#DECIMAL:              ,POINT
#SEPARATOR:            ,COMMA
#MTYPE:                ,DIL
#INSTRUMENT:           ,NETZSCH DIL 402C
#PROJECT:              ,feldspar
#DATE/TIME:            ,8/25/2019 9:38:56 AM (UTC-5)
#CORR. FILE:           ,
#TEMPCAL:              ,TCALZERO.TMX
#LABORATORY:           ,Mineral Physics
#OPERATOR:             ,PAG
#REMARK:               ,bare, norm start, for short plageioclase, sapphire std, long direction 010, run 4th time
#SAMPLE:               ,hawk mine 010 run4
#SAMPLE LENGTH /mm:    ,8.25
#MATERIAL:             ,sapphire stnd
#MEASMODE:             ,Standard Expansion
#PURGE GAS 1:          ,ARGON
#FLOW RATE 1 /(ml/min):,75
#M.RANGE /µm:          ,500
#CORR. CODE:           ,010
#RANGE:                ,20.0°C/3.0(K/min)/250.0°C
#SEGMENT:              ,S1/1
#SEG. 1:               ,20.0°C/3.0(K/min)/250.0°C

##Temp./°C,Time/min,dL/Lo,Alpha/(1/K)
 22.66800, 0.00000, 2.4570e-005, 1.6580e-005
 24.16800, 5.22375, 2.4334e-005,-1.8087e-005
 25.66800, 5.77394,-3.3616e-008,-1.3521e-005
 27.16800, 6.19202,-1.7847e-005,-1.0512e-005
 28.66800, 6.55401,-3.2414e-005,-7.8600e-006
 30.16800, 6.88622,-4.1913e-005,-5.7298e-006
 31.66800, 7.20113,-4.9147e-005,-3.7396e-006
 33.16800, 7.50609,-5.3054e-005,-5.6272e-007
 34.66800, 7.80672,-5.3766e-005, 1.0537e-006
 36.16800, 8.10715,-5.1435e-005, 3.1518e-006
 37.66800, 8.40727,-4.5807e-005, 3.9985e-006
 39.16800, 8.70705,-3.8880e-005, 4.9243e-006
 40.66800, 9.00657,-3.0160e-005, 6.9206e-006
 42.16800, 9.30592,-1.8969e-005, 6.9227e-006
 43.66800, 9.60399,-7.3888e-006, 8.1313e-006
 45.16800, 9.90161, 4.9367e-006, 8.4836e-006
 46.66800,10.19726, 1.8010e-005, 9.2145e-006
 48.16800,10.48953, 3.1400e-005, 9.1260e-006
 49.66800,10.77912, 4.6419e-005, 9.6147e-006
 51.16800,11.06710, 6.1022e-005, 9.8695e-006
 52.66800,11.35266, 7.5961e-005, 1.0643e-005
 54.16800,11.63539, 9.1818e-005, 1.0441e-005
 55.66800,11.91621, 1.0771e-004, 1.0632e-005
 57.16800,12.19577, 1.2421e-004, 1.0838e-005
 58.66800,12.47375, 1.4189e-004, 1.1763e-005
 60.16800,12.75108, 1.5879e-004, 1.1726e-005
 61.66800,13.02780, 1.7659e-004, 1.2386e-005
 63.16800,13.30438, 1.9583e-004, 1.2807e-005
 64.66800,13.58050, 2.1506e-004, 1.2768e-005
 66.16800,13.85703, 2.3496e-004, 1.3741e-005
 67.66800,14.13487, 2.5543e-004, 1.3368e-005
 69.16800,14.41451, 2.7641e-004, 1.4250e-005
 70.66800,14.69510, 2.9761e-004, 1.4817e-005
 72.16800,14.97565, 3.1911e-004, 1.4379e-005
 73.66800,15.25605, 3.4134e-004, 1.4665e-005
 75.16800,15.53792, 3.6371e-004, 1.5376e-005
 76.66800,15.82138, 3.8680e-004, 1.5438e-005
 78.16800,16.10494, 4.1000e-004, 1.5744e-005
 79.66800,16.38919, 4.3356e-004, 1.5345e-005
 81.16800,16.67397, 4.5660e-004, 1.6083e-005
 82.66800,16.96029, 4.8029e-004, 1.5746e-005
 84.16800,17.24790, 5.0405e-004, 1.6227e-005
 85.66800,17.53636, 5.2776e-004, 1.6181e-005
 87.16800,17.82567, 5.5211e-004, 1.5855e-005
 88.66800,18.11576, 5.7583e-004, 1.6370e-005
 90.16800,18.40688, 6.0041e-004, 1.6552e-005
 91.66800,18.69925, 6.2465e-004, 1.6478e-005
 93.16800,18.99313, 6.4979e-004, 1.6299e-005
 94.66800,19.28800, 6.7465e-004, 1.6167e-005
 96.16800,19.58375, 6.9996e-004, 1.6898e-005
 97.66800,19.88152, 7.2577e-004, 1.6989e-005
 99.16800,20.17995, 7.5104e-004, 1.6713e-005
100.668,20.47912, 7.7674e-004, 1.6758e-005
102.168,20.77887, 8.0250e-004, 1.6681e-005
103.668,21.07851, 8.2859e-004, 1.6840e-005
105.168,21.37893, 8.5442e-004, 1.7349e-005
106.668,21.68151, 8.8008e-004, 1.7392e-005
108.168,21.98479, 9.0598e-004, 1.8352e-005
109.668,22.28854, 9.3308e-004, 1.7283e-005
111.168,22.59388, 9.6063e-004, 1.7577e-005
112.668,22.90041, 9.8798e-004, 1.9524e-005
114.168,23.20679, 1.0149e-003, 1.7599e-005
115.668,23.51348, 1.0432e-003, 1.9697e-005
117.168,23.82082, 1.0698e-003, 1.7643e-005
118.668,24.12909, 1.0970e-003, 1.7312e-005
120.168,24.43802, 1.1244e-003, 1.8241e-005
121.668,24.74838, 1.1520e-003, 1.7685e-005
123.168,25.06161, 1.1794e-003, 1.7877e-005
124.668,25.37547, 1.2077e-003, 1.8771e-005
126.168,25.68751, 1.2336e-003, 1.7699e-005
127.668,25.99972, 1.2602e-003, 1.8068e-005
129.168,26.31244, 1.2873e-003, 1.8478e-005
130.668,26.62566, 1.3137e-003, 1.7689e-005
132.168,26.93990, 1.3405e-003, 1.7429e-005
133.668,27.25461, 1.3671e-003, 1.7559e-005
135.168,27.57026, 1.3942e-003, 1.7872e-005
136.668,27.88631, 1.4216e-003, 1.7445e-005
138.168,28.20356, 1.4488e-003, 1.7883e-005
139.668,28.52154, 1.4762e-003, 1.7686e-005
141.168,28.83917, 1.5039e-003, 1.7388e-005
142.668,29.15561, 1.5301e-003, 1.8259e-005
144.168,29.47257, 1.5568e-003, 1.7231e-005
145.668,29.79142, 1.5838e-003, 1.8683e-005
147.168,30.11193, 1.6110e-003, 1.8489e-005
148.668,30.43300, 1.6386e-003, 1.8640e-005
150.168,30.75416, 1.6670e-003, 1.8392e-005
151.668,31.07595, 1.6945e-003, 1.8325e-005
153.168,31.39907, 1.7224e-003, 1.8481e-005
154.668,31.72251, 1.7506e-003, 1.9173e-005
156.168,32.04601, 1.7783e-003, 1.8317e-005
157.668,32.37004, 1.8062e-003, 1.8824e-005
159.168,32.69392, 1.8335e-003, 1.9165e-005
160.668,33.01805, 1.8616e-003, 1.7851e-005
162.168,33.34278, 1.8889e-003, 1.9019e-005
163.668,33.66812, 1.9167e-003, 1.8698e-005
165.168,33.99350, 1.9448e-003, 1.8075e-005
166.668,34.31985, 1.9726e-003, 1.8692e-005
168.168,34.64665, 2.0006e-003, 1.7859e-005
169.668,34.97327, 2.0289e-003, 1.9313e-005
171.168,35.30209, 2.0570e-003, 1.7802e-005
172.668,35.63157, 2.0850e-003, 1.8404e-005
174.168,35.96130, 2.1134e-003, 1.8610e-005
175.668,36.29201, 2.1422e-003, 1.9740e-005
177.168,36.62355, 2.1706e-003, 1.9523e-005
178.668,36.95545, 2.1996e-003, 1.9731e-005
180.168,37.28705, 2.2280e-003, 1.8972e-005
181.668,37.61953, 2.2558e-003, 1.8558e-005
183.168,37.95102, 2.2841e-003, 1.9134e-005
184.668,38.28293, 2.3130e-003, 1.9058e-005
186.168,38.61703, 2.3417e-003, 1.8516e-005
187.668,38.95124, 2.3702e-003, 1.8738e-005
189.168,39.28564, 2.3995e-003, 1.8733e-005
190.668,39.62055, 2.4283e-003, 1.8897e-005
192.168,39.95585, 2.4580e-003, 1.9552e-005
193.668,40.29190, 2.4874e-003, 2.0296e-005
195.168,40.62887, 2.5172e-003, 2.0409e-005
196.668,40.96646, 2.5484e-003, 2.1709e-005
198.168,41.30487, 2.5776e-003, 2.0493e-005
199.668,41.64335, 2.6072e-003, 1.9548e-005
201.168,41.98247, 2.6372e-003, 1.9233e-005
202.668,42.32283, 2.6657e-003, 2.0390e-005
204.168,42.66387, 2.6956e-003, 2.0055e-005
205.668,43.00554, 2.7250e-003, 1.9664e-005
207.168,43.34768, 2.7543e-003, 1.8627e-005
208.668,43.69100, 2.7841e-003, 1.8982e-005
210.168,44.03458, 2.8132e-003, 1.9328e-005
211.668,44.37926, 2.8427e-003, 1.9756e-005
213.168,44.72485, 2.8711e-003, 1.9396e-005
214.668,45.07012, 2.9006e-003, 1.9936e-005
216.168,45.41554, 2.9291e-003, 1.8132e-005
217.668,45.76187, 2.9581e-003, 1.9517e-005
219.168,46.10869, 2.9862e-003, 1.8776e-005
220.668,46.45614, 3.0147e-003, 1.9663e-005
222.168,46.80447, 3.0431e-003, 1.9083e-005
223.668,47.15287, 3.0720e-003, 1.9341e-005
225.168,47.50262, 3.1011e-003, 1.9382e-005
226.668,47.85357, 3.1313e-003, 2.0904e-005
228.168,48.20381, 3.1609e-003, 2.0517e-005
229.668,48.55452, 3.1909e-003, 2.0287e-005
231.168,48.90700, 3.2204e-003, 2.0497e-005
232.668,49.26011, 3.2506e-003, 1.9192e-005
234.168,49.61346, 3.2804e-003, 2.0251e-005
235.668,49.96795, 3.3115e-003, 2.0090e-005
237.168,50.32276, 3.3413e-003, 1.9394e-005
238.668,50.67757, 3.3710e-003, 1.9840e-005
240.168,51.03450, 3.4016e-003, 2.0501e-005
241.668,51.39127, 3.4318e-003, 1.9857e-005
243.168,51.74774, 3.4617e-003, 2.0428e-005
244.668,52.10550, 3.4910e-003, 1.9381e-005
246.168,52.46390, 3.5205e-003, 1.9243e-005
247.668,52.82422, 3.5501e-003, 1.9904e-005
249.168,53.18534, 3.5805e-003, 2.0622e-005
250.668,53.54606, 3.6088e-003, 1.8789e-005
252.168,53.90709, 3.6378e-003, 1.8313e-005
253.668,54.26879, 3.6665e-003, 1.8206e-005
255.168,54.63186, 3.6957e-003, 1.9145e-005
256.668,54.99580, 3.7256e-003, 1.9830e-005
258.168,55.36036, 3.7548e-003, 1.9707e-005
259.668,55.72597, 3.7844e-003, 1.9894e-005
261.168,56.09186, 3.8143e-003, 1.9574e-005
262.668,56.45773, 3.8430e-003, 1.9398e-005
264.168,56.82454, 3.8717e-003, 1.8383e-005
265.668,57.19251, 3.8999e-003, 1.8510e-005
267.168,57.56091, 3.9289e-003, 2.0800e-005
268.668,57.92882, 3.9576e-003, 2.0168e-005
270.168,58.29825, 3.9871e-003, 1.9225e-005
271.668,58.66952, 4.0173e-003, 1.9259e-005
273.168,59.04095, 4.0467e-003, 1.8181e-005
274.668,59.41278, 4.0769e-003, 2.0126e-005
276.168,59.78544, 4.1066e-003, 2.0324e-005
277.668,60.15945, 4.1366e-003, 1.8783e-005
279.168,60.53423, 4.1652e-003, 2.0297e-005
279.668,60.65893, 4.1766e-003, 1.9949e-005