File: data_backup/8.1mm/sanMtT0p1s1r17.2mm.csv
#EXPORTTYPE:           ,DATA ALL
#FILE:                 ,sanidMttt2run1.ngb-sle
#FORMAT:               ,NETZSCH5
#FTYPE:                ,ANSI
#IDENTITY:             ,mt t ortho 010
#DECIMAL:              ,POINT
#SEPARATOR:            ,COMMA
#MTYPE:                ,DIL
#INSTRUMENT:           ,NETZSCH DIL 402C
#PROJECT:              ,morb
#DATE/TIME:            ,11/14/2018 8:57:26 AM (UTC-6)
#CORR. FILE:           ,
#TEMPCAL:              ,TCALZERO.TMX
#LABORATORY:           ,min phys
#OPERATOR:             ,amh
#REMARK:               ,bare, norm start, calib run
#SAMPLE:               ,mt t ortho
#SAMPLE LENGTH /mm:    ,7.255
#MATERIAL:             ,sapphire stnd
#MEASMODE:             ,Standard Expansion
#PURGE GAS 1:          ,ARGON
#FLOW RATE 1 /(ml/min):,75
#M.RANGE /µm:          ,500
#CORR. CODE:           ,010
#RANGE:                ,20.0°C/3.0(K/min)/950.0°C
#SEGMENT:              ,S1/1
#SEG. 1:               ,20.0°C/3.0(K/min)/950.0°C

##Temp./°C,Time/min,dL/Lo
20.40300, 0.00000, 7.1387e-006
20.40900, 0.06500, 6.9403e-006
20.41200, 0.13000, 7.2030e-006
20.40900, 0.19500, 6.6302e-006
20.41100, 0.26000, 6.9891e-006
20.41500, 0.32500, 6.2595e-006
20.41900, 0.39000, 6.7877e-006
20.41300, 0.45500, 6.3314e-006
20.41200, 0.52000, 5.7901e-006
20.41200, 0.58500, 6.0141e-006
20.41100, 0.65000, 6.0587e-006
20.40800, 0.71500, 5.6410e-006
20.40700, 0.78000, 5.3926e-006
20.41200, 0.84500, 4.7908e-006
20.41200, 0.91000, 5.4455e-006
20.41300, 0.97500, 5.2804e-006
20.41600, 1.04000, 5.0951e-006
20.41600, 1.10500, 4.7677e-006
20.42100, 1.17000, 5.0446e-006
20.41700, 1.23500, 4.5853e-006
20.41900, 1.30000, 4.5824e-006
20.41800, 1.36500, 4.3168e-006
20.42400, 1.43000, 4.4285e-006
20.42400, 1.49500, 4.1701e-006
20.42000, 1.56000, 3.9175e-006
20.43100, 1.62500, 3.7893e-006
20.43100, 1.69000, 3.7032e-006
20.42700, 1.75500, 4.1398e-006
20.43000, 1.82000, 3.7994e-006
20.43100, 1.88500, 3.5998e-006
20.43300, 1.95000, 3.4418e-006
20.44600, 2.01500, 3.6380e-006
20.44300, 2.08000, 3.4443e-006
20.44400, 2.14500, 2.7622e-006
20.44700, 2.21000, 3.2661e-006
20.44500, 2.27500, 3.3896e-006
20.44300, 2.34000, 3.4098e-006
20.44700, 2.40500, 3.1110e-006
20.44900, 2.47000, 3.1597e-006
20.45900, 2.53500, 3.0071e-006
20.46000, 2.60000, 2.6008e-006
20.46800, 2.66500, 2.8130e-006
20.47200, 2.73000, 2.2557e-006
20.47600, 2.79500, 1.6468e-006
20.49300, 2.86000, 1.7509e-006
20.49700, 2.92500, 1.9173e-006
20.51900, 2.99000, 9.1999e-007
20.53900, 3.05500, 8.9049e-007
20.56900, 3.12000,-1.5307e-007
20.59000, 3.18500,-1.2264e-006
20.61900, 3.25000,-1.9498e-006
20.66300, 3.31500,-3.3241e-006
20.70400, 3.38000,-4.7026e-006
20.74900, 3.44500,-5.7424e-006
20.80200, 3.51000,-7.2248e-006
20.86800, 3.57500,-8.8899e-006
20.93200, 3.64000,-9.8802e-006
21.00100, 3.70500,-1.1782e-005
21.08100, 3.77000,-1.4502e-005
21.17500, 3.83500,-1.6484e-005
21.26900, 3.90000,-1.8655e-005
21.37000, 3.96500,-2.0656e-005
21.47700, 4.03000,-2.3234e-005
21.59700, 4.09500,-2.5616e-005
21.71900, 4.16000,-2.8484e-005
21.84500, 4.22500,-3.1529e-005
21.98400, 4.29000,-3.3964e-005
22.12700, 4.35500,-3.8094e-005
22.28800, 4.42000,-4.0838e-005
22.44800, 4.48500,-4.3467e-005
22.62400, 4.55000,-4.7103e-005
22.80100, 4.61500,-5.0145e-005
22.98200, 4.68000,-5.4312e-005
23.18400, 4.74500,-5.7520e-005
23.38400, 4.81000,-6.0639e-005
23.58400, 4.87500,-6.4877e-005
23.80700, 4.94000,-6.8175e-005
24.03300, 5.00500,-7.2192e-005
24.26000, 5.07000,-7.5410e-005
24.48700, 5.13500,-7.8610e-005
24.72700, 5.20000,-8.2681e-005
24.97200, 5.26500,-8.6355e-005
25.22800, 5.33000,-8.9657e-005
25.48600, 5.39500,-9.2823e-005
25.75300, 5.46000,-9.6097e-005
26.01100, 5.52500,-1.0021e-004
26.28500, 5.59000,-1.0273e-004
26.55600, 5.65500,-1.0578e-004
26.85200, 5.72000,-1.0878e-004
27.13200, 5.78500,-1.1211e-004
27.41600, 5.85000,-1.1495e-004
27.70900, 5.91500,-1.1745e-004
28.00400, 5.98000,-1.2052e-004
28.29200, 6.04500,-1.2285e-004
28.59300, 6.11000,-1.2505e-004
28.89400, 6.17500,-1.2789e-004
29.19500, 6.24000,-1.3023e-004
29.50100, 6.30500,-1.3249e-004
29.81000, 6.37000,-1.3460e-004
30.11900, 6.43500,-1.3629e-004
30.41900, 6.50000,-1.3791e-004
30.73100, 6.56500,-1.3998e-004
31.02900, 6.63000,-1.4108e-004
31.35200, 6.69500,-1.4268e-004
31.66000, 6.76000,-1.4345e-004
31.96600, 6.82500,-1.4509e-004
32.28500, 6.89000,-1.4613e-004
32.59800, 6.95500,-1.4706e-004
32.90600, 7.02000,-1.4793e-004
33.22500, 7.08500,-1.4859e-004
33.52600, 7.15000,-1.4961e-004
33.83700, 7.21500,-1.4959e-004
34.15100, 7.28000,-1.4982e-004
34.46700, 7.34500,-1.5032e-004
34.77700, 7.41000,-1.5038e-004
35.09300, 7.47500,-1.5081e-004
35.39700, 7.54000,-1.5090e-004
35.72000, 7.60500,-1.5022e-004
36.04100, 7.67000,-1.5036e-004
36.35300, 7.73500,-1.4977e-004
36.67000, 7.80000,-1.4943e-004
36.97700, 7.86500,-1.4915e-004
37.29400, 7.93000,-1.4842e-004
37.60900, 7.99500,-1.4811e-004
37.92200, 8.06000,-1.4717e-004
38.23400, 8.12500,-1.4600e-004
38.54900, 8.19000,-1.4554e-004
38.86400, 8.25500,-1.4536e-004
39.17800, 8.32000,-1.4394e-004
39.49200, 8.38500,-1.4330e-004
39.81500, 8.45000,-1.4248e-004
40.12400, 8.51500,-1.4115e-004
40.44200, 8.58000,-1.4003e-004
40.75800, 8.64500,-1.3885e-004
41.07400, 8.71000,-1.3818e-004
41.38900, 8.77500,-1.3704e-004
41.70600, 8.84000,-1.3565e-004
42.02700, 8.90500,-1.3435e-004
42.34200, 8.97000,-1.3311e-004
42.66200, 9.03500,-1.3158e-004
42.98500, 9.10000,-1.3037e-004
43.31100, 9.16500,-1.2912e-004
43.62300, 9.23000,-1.2783e-004
43.95100, 9.29500,-1.2601e-004
44.27700, 9.36000,-1.2456e-004
44.59400, 9.42500,-1.2320e-004
44.92600, 9.49000,-1.2161e-004
45.24600, 9.55500,-1.2035e-004
45.57500, 9.62000,-1.1834e-004
45.89800, 9.68500,-1.1720e-004
46.22800, 9.75000,-1.1519e-004
46.55100, 9.81500,-1.1408e-004
46.87600, 9.88000,-1.1198e-004
47.21200, 9.94500,-1.1041e-004
47.54500,10.01000,-1.0828e-004
47.87300,10.07500,-1.0681e-004
48.21300,10.14000,-1.0533e-004
48.54000,10.20500,-1.0347e-004
48.87700,10.27000,-1.0135e-004
49.20400,10.33500,-9.9897e-005
49.54600,10.40000,-9.8270e-005
49.88500,10.46500,-9.5752e-005
50.21700,10.53000,-9.4697e-005
50.55400,10.59500,-9.2382e-005
50.88400,10.66000,-9.0583e-005
51.22800,10.72500,-8.8718e-005
51.56600,10.79000,-8.6499e-005
51.91400,10.85500,-8.4604e-005
52.24400,10.92000,-8.2288e-005
52.59200,10.98500,-8.0824e-005
52.92400,11.05000,-7.8769e-005
53.26700,11.11500,-7.6014e-005
53.60900,11.18000,-7.3800e-005
53.94800,11.24500,-7.1797e-005
54.29900,11.31000,-6.9552e-005
54.64400,11.37500,-6.7093e-005
54.98800,11.44000,-6.5053e-005
55.33500,11.50500,-6.2596e-005
55.67600,11.57000,-6.0268e-005
56.02200,11.63500,-5.7405e-005
56.36400,11.70000,-5.5448e-005
56.70800,11.76500,-5.2513e-005
57.05500,11.83000,-4.9951e-005
57.39500,11.89500,-4.7957e-005
57.74500,11.96000,-4.5650e-005
58.08500,12.02500,-4.2898e-005
58.43400,12.09000,-4.0235e-005
58.77500,12.15500,-3.7648e-005
59.11600,12.22000,-3.5112e-005
59.46000,12.28500,-3.2950e-005
59.80700,12.35000,-2.9889e-005
60.15000,12.41500,-2.6666e-005
60.50300,12.48000,-2.3784e-005
60.84700,12.54500,-2.1260e-005
61.19000,12.61000,-1.7951e-005
61.53500,12.67500,-1.5299e-005
61.87600,12.74000,-1.2693e-005
62.21400,12.80500,-9.3332e-006
62.56300,12.87000,-6.6518e-006
62.90800,12.93500,-3.2239e-006
63.26500,13.00000, 2.7382e-007
63.61100,13.06500, 2.7445e-006
63.94800,13.13000, 5.9771e-006
64.29800,13.19500, 8.7872e-006
64.63500,13.26000, 1.1831e-005
64.98200,13.32500, 1.4964e-005
65.32800,13.39000, 1.8125e-005
65.66000,13.45500, 2.0719e-005
66.00100,13.52000, 2.4619e-005
66.33700,13.58500, 2.7346e-005
66.68000,13.65000, 3.0761e-005
67.02800,13.71500, 3.4282e-005
67.36900,13.78000, 3.7304e-005
67.70900,13.84500, 4.0353e-005
68.05300,13.91000, 4.3828e-005
68.39100,13.97500, 4.6881e-005
68.73500,14.04000, 5.0408e-005
69.06500,14.10500, 5.4247e-005
69.41200,14.17000, 5.7227e-005
69.74800,14.23500, 6.0748e-005
70.09100,14.30000, 6.4786e-005
70.43300,14.36500, 6.7472e-005
70.78100,14.43000, 7.1339e-005
71.12700,14.49500, 7.5037e-005
71.47100,14.56000, 7.8703e-005
71.80600,14.62500, 8.2253e-005
72.14600,14.69000, 8.5184e-005
72.48400,14.75500, 8.9101e-005
72.82400,14.82000, 9.2790e-005
73.17200,14.88500, 9.6642e-005
73.50600,14.95000, 1.0027e-004
73.85200,15.01500, 1.0380e-004
74.19900,15.08000, 1.0780e-004
74.52600,15.14500, 1.1088e-004
74.86200,15.21000, 1.1475e-004
75.20400,15.27500, 1.1781e-004
75.55100,15.34000, 1.2192e-004
75.88100,15.40500, 1.2581e-004
76.22300,15.47000, 1.2942e-004
76.56100,15.53500, 1.3297e-004
76.89900,15.60000, 1.3669e-004
77.23500,15.66500, 1.4013e-004
77.57800,15.73000, 1.4382e-004
77.92700,15.79500, 1.4744e-004
78.26000,15.86000, 1.5172e-004
78.59800,15.92500, 1.5507e-004
78.94200,15.99000, 1.5928e-004
79.27900,16.05500, 1.6362e-004
79.61300,16.12000, 1.6736e-004
79.95800,16.18500, 1.7090e-004
80.30000,16.25000, 1.7525e-004
80.63700,16.31500, 1.7844e-004
80.97500,16.38000, 1.8212e-004
81.31600,16.44500, 1.8584e-004