File: test-folder/albAmel100r1.csv
#EXPORTTYPE:           ,DATA ALL
#FILE:                 ,albAmel100run1.ngb-sle
#FORMAT:               ,NETZSCH5
#FTYPE:                ,ANSI
#IDENTITY:             ,albite amelia 100
#DECIMAL:              ,POINT
#SEPARATOR:            ,COMMA
#MTYPE:                ,DIL
#INSTRUMENT:           ,NETZSCH DIL 402C
#PROJECT:              ,feldspar
#DATE/TIME:            ,8/12/2019 9:43:37 AM (UTC-5)
#CORR. FILE:           ,
#TEMPCAL:              ,TCALZERO.TMX
#LABORATORY:           ,Mineral Physics
#OPERATOR:             ,PAG
#REMARK:               ,colorless amelia alb per to (010) & (001), sample 1, thin rectangle
#SAMPLE:               ,albite
#SAMPLE LENGTH /mm:    ,11.13
#MATERIAL:             ,sapphire stnd
#MEASMODE:             ,Standard Expansion
#PURGE GAS 1:          ,ARGON
#FLOW RATE 1 /(ml/min):,75
#M.RANGE /µm:          ,500
#CORR. CODE:           ,010
#RANGE:                ,20.0°C/3.0(K/min)/1000.0°C
#SEGMENT:              ,S1/1
#SEG. 1:               ,20.0°C/3.0(K/min)/1000.0°C

##Temp./°C,Time/min,dL/Lo
  22.81000,  0.00000, 2.4334e-005
  22.84700,  1.10500, 2.6598e-005
  22.80500,  2.21000, 2.6836e-005
  22.76100,  3.31500, 2.5601e-005
  22.95300,  4.42000, 2.0168e-005
  24.73900,  5.52500, 4.8883e-006
  28.73400,  6.63000, 2.0812e-006
  34.09700,  7.73500, 3.4165e-005
  39.73000,  8.84000, 9.4917e-005
  45.37700,  9.94500, 1.7940e-004
  51.10700, 11.05000, 2.7252e-004
  57.04400, 12.15500, 3.7345e-004
  63.05100, 13.26000, 4.8206e-004
  69.06300, 14.36500, 5.9949e-004
  74.99300, 15.47000, 7.2207e-004
  80.85500, 16.57500, 8.4574e-004
  86.63300, 17.68000, 9.7072e-004
  92.31600, 18.78500, 1.0950e-003
  97.91200, 19.89000, 1.2197e-003
 103.44, 20.99500, 1.3436e-003
 108.894, 22.10000, 1.4662e-003
 114.328, 23.20500, 1.5894e-003
 119.697, 24.31000, 1.7114e-003
 125.025, 25.41500, 1.8324e-003
 130.301, 26.52000, 1.9533e-003
 135.543, 27.62500, 2.0731e-003
 140.775, 28.73000, 2.1928e-003
 145.962, 29.83500, 2.3122e-003
 151.135, 30.94000, 2.4312e-003
 156.254, 32.04500, 2.5492e-003
 161.368, 33.15000, 2.6670e-003
 166.425, 34.25500, 2.7841e-003
 171.481, 35.36000, 2.9010e-003
 176.509, 36.46500, 3.0174e-003
 181.49, 37.57000, 3.1346e-003
 186.46, 38.67500, 3.2508e-003
 191.411, 39.78000, 3.3649e-003
 196.315, 40.88500, 3.4793e-003
 201.197, 41.99000, 3.5935e-003
 206.053, 43.09500, 3.7069e-003
 210.879, 44.20000, 3.8206e-003
 215.681, 45.30500, 3.9329e-003
 220.454, 46.41000, 4.0447e-003
 225.192, 47.51500, 4.1561e-003
 229.908, 48.62000, 4.2659e-003
 234.597, 49.72500, 4.3767e-003
 239.254, 50.83000, 4.4868e-003
 243.888, 51.93500, 4.5958e-003
 248.471, 53.04000, 4.7043e-003
 253.057, 54.14500, 4.8131e-003
 257.597, 55.25000, 4.9206e-003
 262.117, 56.35500, 5.0271e-003
 266.623, 57.46000, 5.1345e-003
 271.094, 58.56500, 5.2404e-003
 275.545, 59.67000, 5.3456e-003
 279.961, 60.77500, 5.4499e-003
 284.364, 61.88000, 5.5547e-003
 288.725, 62.98500, 5.6607e-003
 293.049, 64.09000, 5.7626e-003
 297.376, 65.19500, 5.8666e-003
 301.673, 66.30000, 5.9664e-003
 305.952, 67.40500, 6.0680e-003
 310.194, 68.51000, 6.1686e-003
 314.432, 69.61500, 6.2687e-003
 318.635, 70.72000, 6.3688e-003
 322.814, 71.82500, 6.4680e-003
 326.975, 72.93000, 6.5684e-003
 331.105, 74.03500, 6.6666e-003
 335.225, 75.14000, 6.7654e-003
 339.331, 76.24500, 6.8636e-003
 343.391, 77.35000, 6.9609e-003
 347.449, 78.45500, 7.0574e-003
 351.483, 79.56000, 7.1522e-003
 355.52, 80.66500, 7.2511e-003
 359.506, 81.77000, 7.3446e-003
 363.479, 82.87500, 7.4409e-003
 367.401, 83.98000, 7.5399e-003
 371.266, 85.08500, 7.6344e-003
 375.21, 86.19000, 7.7280e-003
 379.266, 87.29500, 7.8217e-003
 383.357, 88.40000, 7.9169e-003
 387.409, 89.50500, 8.0147e-003
 391.385, 90.61000, 8.1105e-003
 395.317, 91.71500, 8.2046e-003
 399.201, 92.82000, 8.2974e-003
 403.04, 93.92500, 8.3898e-003
 406.847, 95.03000, 8.4821e-003
 410.626, 96.13500, 8.5726e-003
 414.38, 97.24000, 8.6632e-003
 418.102, 98.34500, 8.7523e-003
 421.798, 99.45000, 8.8422e-003
 425.489,100.555, 8.9287e-003
 429.164,101.66, 9.0175e-003
 432.825,102.765, 9.1053e-003
 436.472,103.87, 9.1942e-003
 440.126,104.975, 9.2812e-003
 443.757,106.08, 9.3689e-003
 447.368,107.185, 9.4558e-003
 450.967,108.29, 9.5416e-003
 454.563,109.395, 9.6281e-003
 458.147,110.5, 9.7141e-003
 461.717,111.605, 9.8005e-003
 465.278,112.71, 9.8866e-003
 468.819,113.815, 9.9717e-003
 472.368,114.92, 1.0058e-002
 475.884,116.025, 1.0143e-002
 479.413,117.13, 1.0228e-002
 482.91,118.235, 1.0313e-002
 486.387,119.34, 1.0398e-002
 489.82,120.445, 1.0484e-002
 493.219,121.55, 1.0569e-002
 496.671,122.655, 1.0650e-002
 500.261,123.76, 1.0734e-002
 503.896,124.865, 1.0819e-002
 507.472,125.97, 1.0907e-002
 510.998,127.075, 1.0995e-002
 514.461,128.18, 1.1073e-002
 517.908,129.285, 1.1156e-002
 521.316,130.39, 1.1239e-002
 524.715,131.495, 1.1321e-002
 528.097,132.6, 1.1402e-002
 531.446,133.705, 1.1484e-002
 534.772,134.81, 1.1565e-002
 538.097,135.915, 1.1645e-002
 541.401,137.02, 1.1728e-002
 544.701,138.125, 1.1807e-002
 548.01,139.23, 1.1885e-002
 551.294,140.335, 1.1970e-002
 554.554,141.44, 1.2045e-002
 557.826,142.545, 1.2125e-002
 561.085,143.65, 1.2203e-002
 564.361,144.755, 1.2283e-002
 567.627,145.86, 1.2365e-002
 570.857,146.965, 1.2440e-002
 574.086,148.07, 1.2519e-002
 577.312,149.175, 1.2596e-002
 580.521,150.28, 1.2673e-002
 583.735,151.385, 1.2750e-002
 586.956,152.49, 1.2828e-002
 590.153,153.595, 1.2907e-002
 593.345,154.7, 1.2984e-002
 596.536,155.805, 1.3061e-002
 599.711,156.91, 1.3143e-002
 602.806,158.015, 1.3221e-002
 605.911,159.12, 1.3296e-002
 609.111,160.225, 1.3372e-002
 612.386,161.33, 1.3449e-002
 615.651,162.435, 1.3530e-002
 618.877,163.54, 1.3607e-002
 622.072,164.645, 1.3685e-002
 625.24,165.75, 1.3763e-002
 628.4,166.855, 1.3840e-002
 631.538,167.96, 1.3918e-002
 634.65,169.065, 1.3995e-002
 637.734,170.17, 1.4072e-002
 640.829,171.275, 1.4148e-002
 643.904,172.38, 1.4224e-002
 646.961,173.485, 1.4300e-002
 650.032,174.59, 1.4376e-002
 653.103,175.695, 1.4452e-002
 656.148,176.8, 1.4527e-002
 659.172,177.905, 1.4602e-002
 662.217,179.01, 1.4677e-002
 665.249,180.115, 1.4753e-002
 668.281,181.22, 1.4828e-002
 671.299,182.325, 1.4903e-002
 674.303,183.43, 1.4978e-002
 677.311,184.535, 1.5052e-002
 680.327,185.64, 1.5129e-002
 683.317,186.745, 1.5204e-002
 686.254,187.85, 1.5279e-002
 689.13,188.955, 1.5354e-002
 691.991,190.06, 1.5425e-002
 694.958,191.165, 1.5497e-002
 697.952,192.27, 1.5572e-002
 700.965,193.375, 1.5646e-002
 703.949,194.48, 1.5720e-002
 706.924,195.585, 1.5796e-002
 709.871,196.69, 1.5869e-002
 712.806,197.795, 1.5942e-002
 715.729,198.9, 1.6016e-002
 718.629,200.005, 1.6088e-002
 721.537,201.11, 1.6160e-002
 724.431,202.215, 1.6230e-002
 727.332,203.32, 1.6305e-002
 730.224,204.425, 1.6378e-002
 733.115,205.53, 1.6452e-002
 735.988,206.635, 1.6524e-002
 738.874,207.74, 1.6598e-002
 741.743,208.845, 1.6670e-002
 744.632,209.95, 1.6744e-002
 747.504,211.055, 1.6818e-002
 750.396,212.16, 1.6890e-002
 753.291,213.265, 1.6964e-002
 756.165,214.37, 1.7038e-002
 758.994,215.475, 1.7113e-002
 761.751,216.58, 1.7185e-002
 764.543,217.685, 1.7257e-002
 767.465,218.79, 1.7330e-002
 770.415,219.895, 1.7403e-002
 773.336,221, 1.7478e-002
 776.253,222.105, 1.7551e-002
 779.171,223.21, 1.7628e-002
 782.023,224.315, 1.7699e-002
 784.88,225.42, 1.7772e-002
 787.631,226.525, 1.7846e-002
 790.323,227.63, 1.7917e-002
 793.005,228.735, 1.7986e-002
 795.608,229.84, 1.8053e-002
 798.161,230.945, 1.8121e-002
 800.913,232.05, 1.8191e-002
 803.571,233.155, 1.8261e-002
 806.175,234.26, 1.8331e-002
 808.788,235.365, 1.8398e-002
 811.397,236.47, 1.8465e-002
 814.075,237.575, 1.8534e-002
 816.764,238.68, 1.8603e-002
 819.497,239.785, 1.8678e-002
 822.174,240.89, 1.8751e-002
 824.836,241.995, 1.8821e-002
 827.601,243.1, 1.8890e-002
 830.46,244.205, 1.8962e-002
 833.334,245.31, 1.9035e-002
 836.21,246.415, 1.9108e-002
 839.072,247.52, 1.9182e-002
 841.932,248.625, 1.9256e-002
 844.82,249.73, 1.9332e-002
 847.689,250.835, 1.9405e-002
 850.545,251.94, 1.9478e-002
 853.392,253.045, 1.9547e-002
 856.338,254.15, 1.9622e-002
 859.225,255.255, 1.9700e-002
 861.922,256.36, 1.9771e-002
 864.674,257.465, 1.9842e-002
 867.479,258.57, 1.9916e-002
 870.238,259.675, 1.9990e-002
 872.965,260.78, 2.0061e-002
 875.46,261.885, 2.0131e-002
 877.859,262.99, 2.0198e-002
 880.687,264.095, 2.0269e-002
 883.566,265.2, 2.0345e-002
 886.379,266.305, 2.0420e-002
 889.218,267.41, 2.0495e-002
 892.034,268.515, 2.0569e-002
 894.843,269.62, 2.0644e-002
 897.612,270.725, 2.0719e-002
 900.345,271.83, 2.0792e-002
 903.062,272.935, 2.0864e-002
 905.682,274.04, 2.0937e-002
 908.281,275.145, 2.1008e-002
 910.745,276.25, 2.1075e-002
 913.162,277.355, 2.1144e-002
 915.062,278.46, 2.1205e-002
 917.569,279.565, 2.1264e-002
 920.259,280.67, 2.1336e-002
 923.204,281.775, 2.1415e-002
 926.189,282.88, 2.1495e-002
 928.831,283.985, 2.1574e-002
 931.379,285.09, 2.1645e-002
 934.184,286.195, 2.1721e-002
 937.146,287.3, 2.1801e-002
 940.075,288.405, 2.1881e-002
 942.995,289.51, 2.1963e-002
 945.936,290.615, 2.2043e-002
 948.873,291.72, 2.2127e-002
 951.78,292.825, 2.2205e-002
 954.796,293.93, 2.2291e-002
 957.707,295.035, 2.2376e-002
 960.627,296.14, 2.2460e-002
 963.531,297.245, 2.2544e-002
 966.406,298.35, 2.2629e-002
 969.324,299.455, 2.2716e-002
 972.196,300.56, 2.2806e-002
 975.238,301.665, 2.2900e-002
 978.033,302.77, 2.2989e-002
 981.044,303.875, 2.3088e-002
 983.942,304.98, 2.3183e-002
 986.928,306.085, 2.3286e-002
 989.854,307.19, 2.3386e-002
 992.95,308.295, 2.3493e-002
 995.965,309.4, 2.3604e-002
 998.908,310.505, 2.3715e-002
1001.72,311.61, 2.3826e-002
1004.77,312.715, 2.3940e-002
1007.58,313.82, 2.4060e-002
1010.64,314.925, 2.4178e-002
1013.95,316.03, 2.4311e-002
1017.28,317.135, 2.4445e-002
1020.42,318.24, 2.4581e-002
1023.51,319.345, 2.4717e-002
1026.37,320.45, 2.4851e-002
1028.96,321.555, 2.4976e-002
1031.71,322.66, 2.5104e-002
1034.57,323.765, 2.5229e-002
1037.57,324.87, 2.5360e-002
1040.67,325.975, 2.5492e-002
1042.56,326.647, 2.5571e-002