File: data/16.6mm-102819/byto000sA1r2-16mm-102619.csv
#EXPORTTYPE:           ,DATA ALL                                                                                                    ,,,,,,
#FILE:                 ,bytownA1run2.ngb-sle                                                                                        ,,,,,,
#FORMAT:               ,NETZSCH5                                                                                                    ,,,,,,
#FTYPE:                ,ANSI                                                                                                        ,,,,,,
#IDENTITY:             ,fmb-A                                                                                                       ,,,,,,
#DECIMAL:              ,POINT                                                                                                       ,,,,,,
#SEPARATOR:            ,COMMA                                                                                                       ,,,,,,
#MTYPE:                ,DIL                                                                                                         ,,,,,,
#INSTRUMENT:           ,NETZSCH DIL 402C                                                                                            ,,,,,,
#PROJECT:              ,feldspar                                                                                                    ,,,,,,
#DATE/TIME:            ,10/26/2019 10:13:27 AM (UTC-5)                                                                              ,,,,,,
#CORR. FILE:           ,                                                                                                            ,,,,,,
#TEMPCAL:              ,TCALZERO.TMX                                                                                                ,,,,,,
#LABORATORY:           ,Mineral Physics                                                                                             ,,,,,,
#OPERATOR:             ,PAG                                                                                                         ,,,,,,
#REMARK:               ,bare, norm start, for bytown and rocks , long stnd, new thermocouple, new pushrod, redo wa heated to 850 c
#SAMPLE:               ,mexi bytownite                                                                                              ,,,,,,
#SAMPLE LENGTH /mm:    ,16.048,,,,,,
#MATERIAL:             ,sapphire stnd                                                                                               ,,,,,,
#MEASMODE:             ,Standard Expansion                                                                                          ,,,,,,
#PURGE GAS 1:          ,ARGON                                                                                                       ,,,,,,
#FLOW RATE 1 /(ml/min):,75,,,,,,
#M.RANGE /µm:          ,500,,,,,,
#CORR. CODE:           ,10,,,,,,
#RANGE:                ,20.0°C/3.0(K/min)/1180.0°C                                                                                  ,,,,,,
#SEGMENT:              ,S1/1                                                                                                        ,,,,,,
#SEG. 1:               ,20.0°C/3.0(K/min)/1180.0°C                                                                                  ,,,,,,
,,,,,,,
##Temp./°C,Time/min,dL/Lo,,,,,
21.19,0.000000000000,1.2758e-05,,,,,
21.296,1.3,1.7184e-05,,,,,
21.322,2.6,1.6022e-05,,,,,
21.695,3.9,1.1856e-05,,,,,
24.284,5.2,-0.000002730200,,,,,
29.437,6.5,-0.000007847000,,,,,
35.621,7.8,1.535e-05,,,,,
41.896,9.1,6.1532e-05,,,,,
48.32,10.4,0.00011957,,,,,
54.996,11.7,0.00018471,,,,,
61.846,13,0.00025792,,,,,
68.687,14.3,0.00033783,,,,,
75.471,15.6,0.0004217,,,,,
82.243,16.9,0.00050844,,,,,
88.898,18.2,0.00059656,,,,,
95.473,19.5,0.0006856,,,,,
101.953,20.8,0.0007751,,,,,
108.374,22.1,0.00086512,,,,,
114.704,23.4,0.0009553,,,,,
120.978,24.7,0.0010453,,,,,
127.178,26,0.0011345,,,,,
133.353,27.3,0.0012239,,,,,
139.47,28.6,0.0013131,,,,,
145.554,29.9,0.0014016,,,,,
151.584,31.2,0.0014891,,,,,
157.559,32.5,0.0015767,,,,,
163.498,33.8,0.0016643,,,,,
169.394,35.1,0.0017507,,,,,
175.223,36.4,0.0018371,,,,,
181.038,37.7,0.0019236,,,,,
186.812,39,0.0020095,,,,,
192.549,40.3,0.0020946,,,,,
198.223,41.6,0.0021797,,,,,
203.868,42.9,0.002264,,,,,
209.471,44.2,0.0023474,,,,,
215.049,45.5,0.0024304,,,,,
220.574,46.8,0.002513,,,,,
226.071,48.1,0.0025952,,,,,
231.518,49.4,0.0026766,,,,,
236.959,50.7,0.0027581,,,,,
242.334,52,0.0028384,,,,,
247.672,53.3,0.0029186,,,,,
252.977,54.6,0.0029985,,,,,
258.231,55.9,0.0030775,,,,,
263.45,57.2,0.0031562,,,,,
268.64,58.5,0.0032345,,,,,
273.794,59.8,0.0033117,,,,,
278.919,61.1,0.0033886,,,,,
283.998,62.4,0.0034649,,,,,
289.049,63.7,0.003541,,,,,
294.062,65,0.0036164,,,,,
299.047,66.3,0.0036911,,,,,
304.009,67.6,0.0037652,,,,,
308.927,68.9,0.0038389,,,,,
313.814,70.2,0.0039126,,,,,
318.677,71.5,0.0039854,,,,,
323.505,72.8,0.0040579,,,,,
328.286,74.1,0.0041302,,,,,
333.044,75.4,0.0042016,,,,,
337.801,76.7,0.0042728,,,,,
342.533,78,0.0043435,,,,,
347.229,79.3,0.0044137,,,,,
351.889,80.6,0.0044835,,,,,
356.527,81.9,0.0045531,,,,,
361.141,83.2,0.0046226,,,,,
365.726,84.5,0.0046914,,,,,
370.288,85.8,0.00476,,,,,
374.831,87.1,0.0048278,,,,,
379.345,88.4,0.004896,,,,,
383.833,89.7,0.0049634,,,,,
388.295,91,0.0050304,,,,,
392.74,92.3,0.0050972,,,,,
397.141,93.6,0.0051632,,,,,
401.574,94.9,0.00523,,,,,
405.961,96.2,0.0052959,,,,,
410.334,97.5,0.0053614,,,,,
414.686,98.8,0.0054267,,,,,
419.015,100.1,0.0054915,,,,,
423.351,101.4,0.0055564,,,,,
427.644,102.7,0.0056264,,,,,
431.902,104,0.00569,,,,,
436.157,105.3,0.0057544,,,,,
440.336,106.6,0.0058197,,,,,
444.469,107.9,0.0058845,,,,,
448.676,109.2,0.0059465,,,,,
453.046,110.5,0.0060086,,,,,
457.469,111.8,0.0060723,,,,,
461.838,113.1,0.0061371,,,,,
466.13,114.4,0.0062015,,,,,
470.356,115.7,0.006265,,,,,
474.537,117,0.0063279,,,,,
478.66,118.3,0.0063905,,,,,
482.733,119.6,0.0064522,,,,,
486.784,120.9,0.0065134,,,,,
490.798,122.2,0.0065746,,,,,
494.798,123.5,0.0066352,,,,,
498.78,124.8,0.0066951,,,,,
502.744,126.1,0.0067547,,,,,
506.703,127.4,0.0068142,,,,,
510.65,128.7,0.0068731,,,,,
514.587,130,0.0069321,,,,,
518.503,131.3,0.0069912,,,,,
522.41,132.6,0.0070502,,,,,
526.324,133.9,0.0071088,,,,,
530.245,135.2,0.0071679,,,,,
534.124,136.5,0.0072268,,,,,
537.994,137.8,0.0072852,,,,,
541.887,139.1,0.0073441,,,,,
545.757,140.4,0.0074033,,,,,
549.608,141.7,0.0074611,,,,,
553.461,143,0.0075192,,,,,
557.3,144.3,0.0075774,,,,,
561.11,145.6,0.0076354,,,,,
564.888,146.9,0.0076946,,,,,
568.614,148.2,0.0077526,,,,,
572.409,149.5,0.007809,,,,,
576.332,150.8,0.0078664,,,,,
580.245,152.1,0.0079248,,,,,
584.098,153.4,0.0079834,,,,,
587.912,154.7,0.0080412,,,,,
591.689,156,0.008099,,,,,
595.452,157.3,0.0081561,,,,,
599.19,158.6,0.0082132,,,,,
602.899,159.9,0.0082698,,,,,
606.583,161.2,0.0083266,,,,,
610.266,162.5,0.0083835,,,,,
613.938,163.8,0.0084393,,,,,
617.614,165.1,0.0084957,,,,,
621.282,166.4,0.0085519,,,,,
624.913,167.7,0.0086081,,,,,
628.55,169,0.0086634,,,,,
632.186,170.3,0.0087191,,,,,
635.832,171.6,0.0087753,,,,,
639.445,172.9,0.008832,,,,,
643.019,174.2,0.0088891,,,,,
646.519,175.5,0.0089455,,,,,
650.082,176.8,0.0090005,,,,,
653.77,178.1,0.0090571,,,,,
657.449,179.4,0.0091143,,,,,
661.123,180.7,0.0091713,,,,,
664.75,182,0.009228,,,,,
668.351,183.3,0.0092845,,,,,
671.928,184.6,0.0093408,,,,,
675.47,185.9,0.009397,,,,,
679.012,187.2,0.009452,,,,,
682.536,188.5,0.009508,,,,,
686.06,189.8,0.0095637,,,,,
689.538,191.1,0.0096192,,,,,
692.968,192.4,0.0096736,,,,,
696.401,193.7,0.0097276,,,,,
699.849,195,0.0097825,,,,,
703.298,196.3,0.0098371,,,,,
706.74,197.6,0.0098922,,,,,
710.175,198.9,0.009947,,,,,
713.627,200.2,0.01,,,,,
717.05,201.5,0.010055,,,,,
720.498,202.8,0.010111,,,,,
723.907,204.1,0.010167,,,,,
727.211,205.4,0.010222,,,,,
730.581,206.7,0.010275,,,,,
734.078,208,0.010328,,,,,
737.576,209.3,0.010383,,,,,
741.051,210.6,0.010437,,,,,
744.514,211.9,0.010492,,,,,
747.965,213.2,0.010547,,,,,
751.388,214.5,0.010602,,,,,
754.79,215.8,0.010656,,,,,
758.169,217.1,0.010708,,,,,
761.571,218.4,0.010763,,,,,
764.94,219.7,0.010818,,,,,
768.301,221,0.010871,,,,,
771.648,222.3,0.010924,,,,,
774.986,223.6,0.010978,,,,,
778.279,224.9,0.011028,,,,,
781.628,226.2,0.011081,,,,,
784.984,227.5,0.011134,,,,,
788.266,228.8,0.011187,,,,,
791.472,230.1,0.011239,,,,,
794.56,231.4,0.011291,,,,,
797.746,232.7,0.011342,,,,,
801.021,234,0.011393,,,,,
804.295,235.3,0.011445,,,,,
807.534,236.6,0.011496,,,,,
810.839,237.9,0.011548,,,,,
814.082,239.2,0.0116,,,,,
817.256,240.5,0.011651,,,,,
820.451,241.8,0.011701,,,,,
823.64,243.1,0.011752,,,,,
826.916,244.4,0.011805,,,,,
830.273,245.7,0.011857,,,,,
833.589,247,0.011911,,,,,
836.902,248.3,0.011962,,,,,
840.247,249.6,0.012014,,,,,
843.58,250.9,0.012066,,,,,
846.954,252.2,0.012118,,,,,
850.347,253.5,0.012172,,,,,
853.649,254.8,0.012226,,,,,
856.922,256.1,0.012278,,,,,
860.281,257.4,0.01233,,,,,
863.704,258.7,0.012384,,,,,
867.135,260,0.012438,,,,,
870.574,261.3,0.012493,,,,,
873.959,262.6,0.012548,,,,,
877.288,263.9,0.012602,,,,,
880.928,265.2,0.012656,,,,,
884.397,266.5,0.012716,,,,,
887.625,267.8,0.012769,,,,,
890.935,269.1,0.012823,,,,,
894.283,270.4,0.012874,,,,,
897.682,271.7,0.012929,,,,,
901.016,273,0.012983,,,,,
904.306,274.3,0.013036,,,,,
907.519,275.6,0.01309,,,,,
910.524,276.9,0.013143,,,,,
913.222,278.2,0.013189,,,,,
916.3,279.5,0.013238,,,,,
919.235,280.8,0.013287,,,,,
921.764,282.1,0.013331,,,,,
924.814,283.4,0.013375,,,,,
928.246,284.7,0.013428,,,,,
931.517,286,0.013481,,,,,
934.845,287.3,0.013533,,,,,
938.164,288.6,0.013587,,,,,
941.523,289.9,0.01364,,,,,
944.834,291.2,0.013693,,,,,
948.13,292.5,0.013747,,,,,
951.499,293.8,0.013799,,,,,
954.918,295.1,0.013854,,,,,
958.313,296.4,0.013909,,,,,
961.684,297.7,0.013963,,,,,
965.048,299,0.014017,,,,,
968.462,300.3,0.014072,,,,,
971.95,301.6,0.014127,,,,,
975.546,302.9,0.014184,,,,,
979.147,304.2,0.014241,,,,,
982.812,305.5,0.014299,,,,,
986.308,306.8,0.014357,,,,,
989.736,308.1,0.014411,,,,,
993.277,309.4,0.014468,,,,,
996.787,310.7,0.014526,,,,,
1000.27,312,0.014582,,,,,
1003.74,313.3,0.014638,,,,,
1007.2,314.6,0.014694,,,,,
1010.69,315.9,0.014751,,,,,
1014.26,317.2,0.014809,,,,,
1017.83,318.5,0.014865,,,,,
1021.36,319.8,0.014921,,,,,
1024.88,321.1,0.014979,,,,,
1028.44,322.4,0.015035,,,,,
1031.99,323.7,0.015095,,,,,
1035.62,325,0.015153,,,,,
1039.16,326.3,0.015213,,,,,
1042.79,327.6,0.015272,,,,,
1046.31,328.9,0.015332,,,,,
1049.85,330.2,0.015391,,,,,
1053.4,331.5,0.015448,,,,,
1057.04,332.8,0.015507,,,,,
1060.53,334.1,0.015569,,,,,
1064.16,335.4,0.015628,,,,,
1067.6,336.7,0.015687,,,,,
1071.13,338,0.015745,,,,,
1074.8,339.3,0.015805,,,,,
1078.36,340.6,0.01587,,,,,
1081.95,341.9,0.01593,,,,,
1085.77,343.2,0.015991,,,,,
1089.73,344.5,0.016061,,,,,
1092.89,345.8,0.016115,,,,,
1096.6,347.1,0.016174,,,,,
1100.06,348.4,0.016234,,,,,
1103.57,349.7,0.016292,,,,,
1107.35,351,0.016355,,,,,
1111.04,352.3,0.016413,,,,,
1114.79,353.6,0.016475,,,,,
1118.57,354.9,0.016539,,,,,
1122.3,356.2,0.016601,,,,,
1126.08,357.5,0.016664,,,,,
1129.81,358.8,0.016728,,,,,
1133.42,360.1,0.016791,,,,,
1136.83,361.4,0.01685,,,,,
1140.27,362.7,0.016908,,,,,
1143.92,364,0.016968,,,,,
1147.64,365.3,0.01703,,,,,
1151.34,366.6,0.017092,,,,,
1155.01,367.9,0.017152,,,,,
1158.66,369.2,0.017212,,,,,
1162.28,370.5,0.017269,,,,,
1165.99,371.8,0.017329,,,,,
1169.72,373.1,0.01739,,,,,
1173.22,374.4,0.017448,,,,,
1176.65,375.7,0.017504,,,,,
1180.26,377,0.017562,,,,,
1183.83,378.3,0.01762,,,,,
1187.54,379.6,0.017679,,,,,
1191.16,380.9,0.017739,,,,,
1194.75,382.2,0.017794,,,,,
1198.42,383.5,0.017852,,,,,
1198.89,383.673,0.01786,,,,,