File: data/16.6mm-102819/ExpDat_sapph16.6mm10282019s.csv
#EXPORTTYPE:           ,DATA ALL
#FILE:                 ,sapph17mm10282019s.ngb-cle
#FORMAT:               ,NETZSCH5
#FTYPE:                ,ANSI
#IDENTITY:             ,sapphire 17
#DECIMAL:              ,POINT
#SEPARATOR:            ,COMMA
#MTYPE:                ,DIL
#INSTRUMENT:           ,NETZSCH DIL 402C
#PROJECT:              ,feldspar
#DATE/TIME:            ,10/28/2019 9:58:07 AM (UTC-5)
#CORR. FILE:           ,
#TEMPCAL:              ,TCALZERO.TMX
#LABORATORY:           ,Mineral Physics
#OPERATOR:             ,PAG
#REMARK:               ,bare, norm start, for bytown and rocks , long stnd, new thermocouple, new pushrod, redo again for check
#SAMPLE:               ,sapph standar
#SAMPLE LENGTH /mm:    ,16.592
#MATERIAL:             ,sapphire stnd
#MEASMODE:             ,Standard Expansion
#PURGE GAS 1:          ,ARGON
#FLOW RATE 1 /(ml/min):,75
#M.RANGE /µm:          ,500
#CORR. CODE:           ,010
#RANGE:                ,20.0°C/3.0(K/min)/1170.0°C
#SEGMENT:              ,S1/1
#SEG. 1:               ,20.0°C/3.0(K/min)/1170.0°C

##Temp./°C,Time/min,dL/Lo
  22.28200,  0.00000,2.0560e-005
  22.43500,  1.27833,3.1568e-005
  22.48200,  2.55667,3.2996e-005
  22.58200,  3.83500,3.2008e-005
  23.85900,  5.11333,2.2117e-005
  27.79800,  6.39167,1.2478e-005
  33.48300,  7.67000,2.7187e-005
  39.59000,  8.94833,7.0516e-005
  45.73400, 10.22667,1.2753e-004
  52.14500, 11.50500,1.9193e-004
  58.82500, 12.78333,2.6410e-004
  65.56500, 14.06167,3.4368e-004
  72.30900, 15.34000,4.2848e-004
  78.98300, 16.61833,5.1675e-004
  85.59800, 17.89667,6.0704e-004
  92.14800, 19.17500,6.9981e-004
  98.58500, 20.45333,7.9312e-004
 104.963, 21.73167,8.8695e-004
 111.261, 23.01000,9.8036e-004
 117.496, 24.28833,1.0734e-003
 123.669, 25.56667,1.1652e-003
 129.806, 26.84500,1.2574e-003
 135.887, 28.12333,1.3504e-003
 141.915, 29.40167,1.4429e-003
 147.911, 30.68000,1.5338e-003
 153.848, 31.95833,1.6240e-003
 159.757, 33.23667,1.7140e-003
 165.609, 34.51500,1.8027e-003
 171.441, 35.79333,1.8914e-003
 177.239, 37.07167,1.9800e-003
 182.982, 38.35000,2.0678e-003
 188.682, 39.62833,2.1550e-003
 194.359, 40.90667,2.2412e-003
 199.991, 42.18500,2.3270e-003
 205.586, 43.46333,2.4126e-003
 211.119, 44.74167,2.4994e-003
 216.562, 46.02000,2.5848e-003
 221.992, 47.29833,2.6670e-003
 227.542, 48.57667,2.7477e-003
 233.182, 49.85500,2.8293e-003
 238.79, 51.13333,2.9133e-003
 244.294, 52.41167,2.9978e-003
 249.715, 53.69000,3.0804e-003
 255.046, 54.96833,3.1622e-003
 260.305, 56.24667,3.2431e-003
 265.488, 57.52500,3.3230e-003
 270.622, 58.80333,3.4018e-003
 275.705, 60.08167,3.4799e-003
 280.73, 61.36000,3.5571e-003
 285.731, 62.63833,3.6337e-003
 290.702, 63.91667,3.7089e-003
 295.623, 65.19500,3.7844e-003
 300.514, 66.47333,3.8586e-003
 305.386, 67.75167,3.9329e-003
 310.22, 69.03000,4.0063e-003
 315.019, 70.30833,4.0795e-003
 319.793, 71.58667,4.1521e-003
 324.557, 72.86500,4.2245e-003
 329.277, 74.14333,4.2965e-003
 333.962, 75.42167,4.3679e-003
 338.631, 76.70000,4.4384e-003
 343.28, 77.97833,4.5085e-003
 347.9, 79.25667,4.5793e-003
 352.497, 80.53500,4.6490e-003
 357.063, 81.81333,4.7181e-003
 361.61, 83.09167,4.7874e-003
 366.128, 84.37000,4.8554e-003
 370.637, 85.64833,4.9240e-003
 375.108, 86.92667,4.9919e-003
 379.557, 88.20500,5.0588e-003
 383.962, 89.48333,5.1261e-003
 388.387, 90.76167,5.1938e-003
 392.781, 92.04000,5.2603e-003
 397.137, 93.31833,5.3260e-003
 401.464, 94.59667,5.3924e-003
 405.78, 95.87500,5.4574e-003
 410.087, 97.15333,5.5228e-003
 414.357, 98.43167,5.5878e-003
 418.61, 99.71000,5.6519e-003
 422.85,100.988,5.7163e-003
 427.055,102.267,5.7798e-003
 431.26,103.545,5.8443e-003
 435.441,104.823,5.9082e-003
 439.603,106.102,5.9725e-003
 443.723,107.38,6.0375e-003
 447.779,108.658,6.1016e-003
 451.864,109.937,6.1627e-003
 456.099,111.215,6.2240e-003
 460.345,112.493,6.2878e-003
 464.538,113.772,6.3514e-003
 468.691,115.05,6.4140e-003
 472.77,116.328,6.4769e-003
 476.829,117.607,6.5390e-003
 480.85,118.885,6.6052e-003
 484.828,120.163,6.6651e-003
 488.778,121.442,6.7240e-003
 492.712,122.72,6.7842e-003
 496.641,123.998,6.8442e-003
 500.541,125.277,6.9032e-003
 504.424,126.555,6.9625e-003
 508.307,127.833,7.0211e-003
 512.173,129.112,7.0803e-003
 516.023,130.39,7.1398e-003
 519.788,131.668,7.2009e-003
 523.557,132.947,7.2578e-003
 527.425,134.225,7.3139e-003
 531.385,135.503,7.3723e-003
 535.329,136.782,7.4322e-003
 539.208,138.06,7.4910e-003
 543.045,139.338,7.5490e-003
 546.86,140.617,7.6068e-003
 550.644,141.895,7.6633e-003
 554.407,143.173,7.7204e-003
 558.149,144.452,7.7766e-003
 561.899,145.73,7.8323e-003
 565.61,147.008,7.8887e-003
 569.308,148.287,7.9424e-003
 573.021,149.565,7.9973e-003
 576.706,150.843,8.0513e-003
 580.389,152.122,8.1064e-003
 584.07,153.4,8.1609e-003
 587.741,154.678,8.2169e-003
 591.388,155.957,8.2711e-003
 595.05,157.235,8.3255e-003
 598.705,158.513,8.3805e-003
 602.336,159.792,8.4357e-003
 605.949,161.07,8.4893e-003
 609.577,162.348,8.5449e-003
 613.198,163.627,8.5996e-003
 616.783,164.905,8.6545e-003
 620.369,166.183,8.7107e-003
 623.897,167.462,8.7663e-003
 627.375,168.74,8.8215e-003
 630.947,170.018,8.8745e-003
 634.633,171.297,8.9301e-003
 638.292,172.575,8.9866e-003
 641.917,173.853,9.0434e-003
 645.522,175.132,9.0989e-003
 649.092,176.41,9.1538e-003
 652.638,177.688,9.2087e-003
 656.156,178.967,9.2625e-003
 659.663,180.245,9.3175e-003
 663.16,181.523,9.3707e-003
 666.653,182.802,9.4255e-003
 670.145,184.08,9.4795e-003
 673.606,185.358,9.5336e-003
 677.047,186.637,9.5865e-003
 680.489,187.915,9.6396e-003
 683.94,189.193,9.6926e-003
 687.353,190.472,9.7456e-003
 690.75,191.75,9.7984e-003
 694.134,193.028,9.8505e-003
 697.485,194.307,9.9027e-003
 700.839,195.585,9.9543e-003
 704.193,196.863,1.0006e-002
 707.486,198.142,1.0059e-002
 710.732,199.42,1.0110e-002
 714.069,200.698,1.0160e-002
 717.505,201.977,1.0210e-002
 720.961,203.255,1.0262e-002
 724.397,204.533,1.0314e-002
 727.825,205.812,1.0365e-002
 731.222,207.09,1.0416e-002
 734.6,208.368,1.0466e-002
 737.977,209.647,1.0516e-002
 741.342,210.925,1.0568e-002
 744.698,212.203,1.0618e-002
 748.041,213.482,1.0668e-002
 751.372,214.76,1.0717e-002
 754.692,216.038,1.0766e-002
 758.027,217.317,1.0816e-002
 761.35,218.595,1.0865e-002
 764.601,219.873,1.0915e-002
 767.8,221.152,1.0963e-002
 771.118,222.43,1.1010e-002
 774.502,223.708,1.1058e-002
 777.901,224.987,1.1107e-002
 781.285,226.265,1.1156e-002
 784.617,227.543,1.1204e-002
 787.925,228.822,1.1254e-002
 791.122,230.1,1.1302e-002
 794.285,231.378,1.1349e-002
 797.406,232.657,1.1396e-002
 800.445,233.935,1.1444e-002
 803.581,235.213,1.1491e-002
 806.735,236.492,1.1540e-002
 809.86,237.77,1.1589e-002
 812.915,239.048,1.1637e-002
 815.961,240.327,1.1685e-002
 819.101,241.605,1.1732e-002
 822.288,242.883,1.1782e-002
 825.492,244.162,1.1832e-002
 828.673,245.44,1.1883e-002
 831.835,246.718,1.1933e-002
 835.099,247.997,1.1983e-002
 838.429,249.275,1.2035e-002
 841.787,250.553,1.2089e-002
 845.194,251.832,1.2142e-002
 848.57,253.11,1.2194e-002
 851.93,254.388,1.2247e-002
 855.325,255.667,1.2300e-002
 858.688,256.945,1.2352e-002
 862.033,258.223,1.2405e-002
 865.343,259.502,1.2459e-002
 868.553,260.78,1.2511e-002
 871.836,262.058,1.2562e-002
 875.189,263.337,1.2616e-002
 878.54,264.615,1.2669e-002
 881.848,265.893,1.2722e-002
 885.05,267.172,1.2774e-002
 888.223,268.45,1.2825e-002
 891.493,269.728,1.2877e-002
 894.717,271.007,1.2930e-002
 897.987,272.285,1.2983e-002
 901.178,273.563,1.3035e-002
 904.352,274.842,1.3087e-002
 907.543,276.12,1.3140e-002
 910.697,277.398,1.3191e-002
 913.765,278.677,1.3242e-002
 916.685,279.955,1.3291e-002
 919.002,281.233,1.3337e-002
 921.588,282.512,1.3376e-002
 924.716,283.79,1.3424e-002
 927.992,285.068,1.3477e-002
 931.275,286.347,1.3529e-002
 934.539,287.625,1.3582e-002
 937.791,288.903,1.3635e-002
 941.12,290.182,1.3687e-002
 944.41,291.46,1.3741e-002
 947.718,292.738,1.3793e-002
 951.089,294.017,1.3847e-002
 954.435,295.295,1.3902e-002
 957.748,296.573,1.3955e-002
 961.168,297.852,1.4011e-002
 964.444,299.13,1.4066e-002
 967.836,300.408,1.4117e-002
 971.399,301.687,1.4175e-002
 974.924,302.965,1.4232e-002
 978.405,304.243,1.4288e-002
 981.876,305.522,1.4344e-002
 985.393,306.8,1.4400e-002
 988.899,308.078,1.4457e-002
 992.408,309.357,1.4513e-002
 995.878,310.635,1.4569e-002
 999.342,311.913,1.4626e-002
1002.79,313.192,1.4682e-002
1006.11,314.47,1.4737e-002
1009.45,315.748,1.4792e-002
1012.97,317.027,1.4848e-002
1016.58,318.305,1.4907e-002
1020.1,319.583,1.4962e-002
1023.69,320.862,1.5019e-002
1027.19,322.14,1.5076e-002
1030.71,323.418,1.5132e-002
1034.19,324.697,1.5189e-002
1037.65,325.975,1.5245e-002
1041.18,327.253,1.5301e-002
1044.61,328.532,1.5357e-002
1048.24,329.81,1.5415e-002
1051.73,331.088,1.5474e-002
1055.25,332.367,1.5531e-002
1058.99,333.645,1.5589e-002
1062.66,334.923,1.5648e-002
1066.27,336.202,1.5707e-002
1069.69,337.48,1.5764e-002
1073.03,338.758,1.5817e-002
1076.38,340.037,1.5870e-002
1079.95,341.315,1.5928e-002
1083.56,342.593,1.5986e-002
1087.09,343.872,1.6042e-002
1090.66,345.15,1.6098e-002
1094.14,346.428,1.6157e-002
1097.69,347.707,1.6213e-002
1101.31,348.985,1.6272e-002
1104.74,350.263,1.6326e-002
1108.21,351.542,1.6381e-002
1111.66,352.82,1.6437e-002
1115.19,354.098,1.6492e-002
1118.79,355.377,1.6549e-002
1122.47,356.655,1.6607e-002
1126.09,357.933,1.6665e-002
1129.68,359.212,1.6724e-002
1133.01,360.49,1.6777e-002
1136.51,361.768,1.6830e-002
1140.18,363.047,1.6891e-002
1143.71,364.325,1.6945e-002
1147.35,365.603,1.7002e-002
1150.9,366.882,1.7058e-002
1154.26,368.16,1.7112e-002
1157.66,369.438,1.7168e-002
1161.27,370.717,1.7222e-002
1164.94,371.995,1.7279e-002
1168.68,373.273,1.7339e-002
1172.54,374.552,1.7400e-002
1175.97,375.83,1.7456e-002
1179.47,377.108,1.7511e-002
1182.74,378.387,1.7563e-002
1186.09,379.665,1.7616e-002
1189.69,380.943,1.7672e-002
1193.37,382.222,1.7730e-002
1194.89,382.742,1.7755e-002