File: data/14.1mm-083019/byto000sB1r1-14.3mm-090919.csv
#EXPORTTYPE:           ,DATA ALL
#FILE:                 ,bytownBs1r1.ngb-sle
#FORMAT:               ,NETZSCH5
#FTYPE:                ,ANSI
#IDENTITY:             ,bytownite s1
#DECIMAL:              ,POINT
#SEPARATOR:            ,COMMA
#MTYPE:                ,DIL
#INSTRUMENT:           ,NETZSCH DIL 402C
#PROJECT:              ,feldspar
#DATE/TIME:            ,9/9/2019 9:42:22 AM (UTC-5)
#CORR. FILE:           ,
#TEMPCAL:              ,TCALZERO.TMX
#LABORATORY:           ,Mineral Physics
#OPERATOR:             ,PAG
#REMARK:               ,bare, norm start, for bytown and rocks , fbm B 010 or 001 rect x section. nice ends
#SAMPLE:               ,FBM-B
#SAMPLE LENGTH /mm:    ,14.265
#MATERIAL:             ,sapphire stnd
#MEASMODE:             ,Standard Expansion
#PURGE GAS 1:          ,ARGON
#FLOW RATE 1 /(ml/min):,75
#M.RANGE /µm:          ,500
#CORR. CODE:           ,010
#RANGE:                ,20.0°C/3.0(K/min)/1180.0°C/30.0(K/min)/900.0°C/
#SEGMENT:              ,S1-2/2
#SEG. 1:               ,20.0°C/3.0(K/min)/1180.0°C
#SEG. 2:               ,1180.0°C/30.0(K/min)/900.0°C

##Temp./°C,Time/min,dL/Lo,Segment
  22.54500,  0.00000, 2.2440e-005,1
  22.59000,  1.36500, 2.6994e-005,1
  22.56800,  2.73000, 2.4059e-005,1
  22.72900,  4.09500, 1.8760e-005,1
  24.91200,  5.46000,-4.3120e-006,1
  30.09500,  6.82500,-3.6283e-005,1
  36.63300,  8.19000,-4.6478e-005,1
  43.33500,  9.55500,-3.5679e-005,1
  50.21400, 10.92000,-1.8359e-005,1
  57.38900, 12.28500, 2.2623e-006,1
  64.75700, 13.65000, 2.6625e-005,1
  72.09900, 15.01500, 5.5555e-005,1
  79.37600, 16.38000, 9.0176e-005,1
  86.54900, 17.74500, 1.2602e-004,1
  93.60700, 19.11000, 1.6226e-004,1
 100.58, 20.47500, 1.9540e-004,1
 107.452, 21.84000, 2.2188e-004,1
 114.237, 23.20500, 2.3887e-004,1
 120.945, 24.57000, 2.4069e-004,1
 127.605, 25.93500, 2.2246e-004,1
 134.192, 27.30000, 1.9024e-004,1
 140.74, 28.66500, 1.4242e-004,1
 147.216, 30.03000, 5.2715e-005,1
 153.652, 31.39500,-3.9219e-005,1
 160.026, 32.76000,-1.3984e-004,1
 166.374, 34.12500,-1.7142e-004,1
 172.665, 35.49000,-1.5377e-004,1
 178.896, 36.85500,-1.2182e-004,1
 185.099, 38.22000,-8.4076e-005,1
 191.246, 39.58500,-4.5501e-005,1
 197.342, 40.95000,-3.6742e-006,1
 203.373, 42.31500, 3.9295e-005,1
 209.373, 43.68000, 8.4098e-005,1
 215.338, 45.04500, 1.2987e-004,1
 221.245, 46.41000, 1.7584e-004,1
 227.111, 47.77500, 2.2145e-004,1
 232.929, 49.14000, 2.6829e-004,1
 238.721, 50.50500, 3.1443e-004,1
 244.449, 51.87000, 3.6069e-004,1
 250.143, 53.23500, 4.0707e-004,1
 255.79, 54.60000, 4.5225e-004,1
 261.401, 55.96500, 4.9758e-004,1
 266.957, 57.33000, 5.4327e-004,1
 272.47, 58.69500, 5.8736e-004,1
 277.946, 60.06000, 6.3230e-004,1
 283.371, 61.42500, 6.7685e-004,1
 288.764, 62.79000, 7.2158e-004,1
 294.123, 64.15500, 7.6614e-004,1
 299.445, 65.52000, 8.1106e-004,1
 304.731, 66.88500, 8.5576e-004,1
 309.97, 68.25000, 9.0072e-004,1
 315.183, 69.61500, 9.4608e-004,1
 320.369, 70.98000, 9.9013e-004,1
 325.542, 72.34500, 1.0348e-003,1
 330.646, 73.71000, 1.0791e-003,1
 335.708, 75.07500, 1.1231e-003,1
 340.755, 76.44000, 1.1670e-003,1
 345.76, 77.80500, 1.2101e-003,1
 350.724, 79.17000, 1.2535e-003,1
 355.663, 80.53500, 1.2975e-003,1
 360.517, 81.90000, 1.3425e-003,1
 365.337, 83.26500, 1.3852e-003,1
 370.27, 84.63000, 1.4252e-003,1
 375.336, 85.99500, 1.4657e-003,1
 380.348, 87.36000, 1.5077e-003,1
 385.273, 88.72500, 1.5496e-003,1
 390.126, 90.09000, 1.5916e-003,1
 394.939, 91.45500, 1.6335e-003,1
 399.642, 92.82000, 1.6744e-003,1
 404.312, 94.18500, 1.7152e-003,1
 408.948, 95.55000, 1.7559e-003,1
 413.541, 96.91500, 1.7956e-003,1
 418.102, 98.28000, 1.8354e-003,1
 422.641, 99.64500, 1.8743e-003,1
 427.155,101.01, 1.9127e-003,1
 431.651,102.375, 1.9508e-003,1
 436.125,103.74, 1.9895e-003,1
 440.594,105.105, 2.0274e-003,1
 445.035,106.47, 2.0657e-003,1
 449.454,107.835, 2.1034e-003,1
 453.848,109.2, 2.1411e-003,1
 458.234,110.565, 2.1789e-003,1
 462.594,111.93, 2.2167e-003,1
 466.937,113.295, 2.2534e-003,1
 471.266,114.66, 2.2903e-003,1
 475.571,116.025, 2.3273e-003,1
 479.849,117.39, 2.3642e-003,1
 484.119,118.755, 2.4003e-003,1
 488.344,120.12, 2.4361e-003,1
 492.578,121.485, 2.4724e-003,1
 496.804,122.85, 2.5083e-003,1
 501.013,124.215, 2.5439e-003,1
 505.19,125.58, 2.5795e-003,1
 509.341,126.945, 2.6143e-003,1
 513.489,128.31, 2.6493e-003,1
 517.591,129.675, 2.6878e-003,1
 521.613,131.04, 2.7227e-003,1
 525.754,132.405, 2.7559e-003,1
 530.034,133.77, 2.7899e-003,1
 534.262,135.135, 2.8255e-003,1
 538.415,136.5, 2.8606e-003,1
 542.552,137.865, 2.8954e-003,1
 546.619,139.23, 2.9302e-003,1
 550.653,140.595, 2.9644e-003,1
 554.671,141.96, 2.9989e-003,1
 558.663,143.325, 3.0324e-003,1
 562.633,144.69, 3.0662e-003,1
 566.574,146.055, 3.1004e-003,1
 570.511,147.42, 3.1343e-003,1
 574.458,148.785, 3.1701e-003,1
 578.372,150.15, 3.2037e-003,1
 582.302,151.515, 3.2377e-003,1
 586.213,152.88, 3.2713e-003,1
 590.094,154.245, 3.3047e-003,1
 593.984,155.61, 3.3379e-003,1
 597.859,156.975, 3.3712e-003,1
 601.722,158.34, 3.4046e-003,1
 605.572,159.705, 3.4374e-003,1
 609.4,161.07, 3.4701e-003,1
 613.24,162.435, 3.5031e-003,1
 617.076,163.8, 3.5366e-003,1
 620.892,165.165, 3.5703e-003,1
 624.646,166.53, 3.6048e-003,1
 628.345,167.895, 3.6386e-003,1
 632.184,169.26, 3.6708e-003,1
 636.126,170.625, 3.7038e-003,1
 640.005,171.99, 3.7367e-003,1
 643.845,173.355, 3.7698e-003,1
 647.665,174.72, 3.8021e-003,1
 651.455,176.085, 3.8346e-003,1
 655.207,177.45, 3.8671e-003,1
 658.934,178.815, 3.8990e-003,1
 662.668,180.18, 3.9307e-003,1
 666.372,181.545, 3.9632e-003,1
 670.065,182.91, 3.9946e-003,1
 673.738,184.275, 4.0272e-003,1
 677.331,185.64, 4.0604e-003,1
 680.902,187.005, 4.0910e-003,1
 684.604,188.37, 4.1215e-003,1
 688.361,189.735, 4.1521e-003,1
 692.061,191.1, 4.1827e-003,1
 695.732,192.465, 4.2136e-003,1
 699.365,193.83, 4.2442e-003,1
 702.96,195.195, 4.2752e-003,1
 706.542,196.56, 4.3052e-003,1
 710.122,197.925, 4.3354e-003,1
 713.709,199.29, 4.3659e-003,1
 717.265,200.655, 4.3967e-003,1
 720.831,202.02, 4.4265e-003,1
 724.392,203.385, 4.4568e-003,1
 727.958,204.75, 4.4870e-003,1
 731.527,206.115, 4.5175e-003,1
 735.079,207.48, 4.5478e-003,1
 738.636,208.845, 4.5782e-003,1
 742.167,210.21, 4.6089e-003,1
 745.703,211.575, 4.6396e-003,1
 749.211,212.94, 4.6714e-003,1
 752.662,214.305, 4.7026e-003,1
 756.121,215.67, 4.7327e-003,1
 759.703,217.035, 4.7622e-003,1
 763.288,218.4, 4.7928e-003,1
 766.853,219.765, 4.8230e-003,1
 770.412,221.13, 4.8534e-003,1
 773.934,222.495, 4.8836e-003,1
 777.356,223.86, 4.9138e-003,1
 780.757,225.225, 4.9432e-003,1
 784.121,226.59, 4.9731e-003,1
 787.421,227.955, 5.0018e-003,1
 790.702,229.32, 5.0299e-003,1
 794.037,230.685, 5.0583e-003,1
 797.283,232.05, 5.0868e-003,1
 800.481,233.415, 5.1140e-003,1
 803.757,234.78, 5.1411e-003,1
 807.087,236.145, 5.1691e-003,1
 810.487,237.51, 5.1971e-003,1
 813.894,238.875, 5.2269e-003,1
 817.21,240.24, 5.2558e-003,1
 820.659,241.605, 5.2838e-003,1
 824.215,242.97, 5.3123e-003,1
 827.804,244.335, 5.3421e-003,1
 831.397,245.7, 5.3717e-003,1
 835.002,247.065, 5.4013e-003,1
 838.589,248.43, 5.4313e-003,1
 842.202,249.795, 5.4628e-003,1
 845.804,251.16, 5.4926e-003,1
 849.409,252.525, 5.5240e-003,1
 853.047,253.89, 5.5553e-003,1
 856.661,255.255, 5.5867e-003,1
 860.287,256.62, 5.6189e-003,1
 863.894,257.985, 5.6502e-003,1
 867.511,259.35, 5.6824e-003,1
 871.135,260.715, 5.7154e-003,1
 874.602,262.08, 5.7477e-003,1
 877.704,263.445, 5.7778e-003,1
 880.862,264.81, 5.8064e-003,1
 884.431,266.175, 5.8360e-003,1
 888.247,267.54, 5.8684e-003,1
 891.978,268.905, 5.9013e-003,1
 895.609,270.27, 5.9337e-003,1
 899.174,271.635, 5.9638e-003,1
 902.741,273, 5.9950e-003,1
 906.273,274.365, 6.0261e-003,1
 909.794,275.73, 6.0570e-003,1
 913.215,277.095, 6.0878e-003,1
 916.474,278.46, 6.1176e-003,1
 919.673,279.825, 6.1463e-003,1
 922.637,281.19, 6.1759e-003,1
 925.185,282.555, 6.1992e-003,1
 928.527,283.92, 6.2266e-003,1
 931.881,285.285, 6.2573e-003,1
 935.252,286.65, 6.2852e-003,1
 938.855,288.015, 6.3149e-003,1
 942.437,289.38, 6.3441e-003,1
 945.996,290.745, 6.3741e-003,1
 949.569,292.11, 6.4037e-003,1
 953.178,293.475, 6.4339e-003,1
 956.783,294.84, 6.4641e-003,1
 960.388,296.205, 6.4948e-003,1
 964.005,297.57, 6.5254e-003,1
 967.647,298.935, 6.5578e-003,1
 971.265,300.3, 6.5903e-003,1
 974.751,301.665, 6.6209e-003,1
 978.303,303.03, 6.6500e-003,1
 982.06,304.395, 6.6818e-003,1
 985.825,305.76, 6.7120e-003,1
 989.538,307.125, 6.7443e-003,1
 993.239,308.49, 6.7747e-003,1
 996.964,309.855, 6.8056e-003,1
1000.69,311.22, 6.8358e-003,1
1004.37,312.585, 6.8661e-003,1
1008.03,313.95, 6.8962e-003,1
1011.74,315.315, 6.9262e-003,1
1015.35,316.68, 6.9564e-003,1
1018.73,318.045, 6.9862e-003,1
1022.11,319.41, 7.0136e-003,1
1025.7,320.775, 7.0404e-003,1
1029.48,322.14, 7.0699e-003,1
1033.25,323.505, 7.0988e-003,1
1037.11,324.87, 7.1289e-003,1
1040.74,326.235, 7.1553e-003,1
1044.37,327.6, 7.1834e-003,1
1048.1,328.965, 7.2102e-003,1
1052.18,330.33, 7.2388e-003,1
1056.31,331.695, 7.2691e-003,1
1060.28,333.06, 7.2991e-003,1
1064.04,334.425, 7.3282e-003,1
1067.56,335.79, 7.3561e-003,1
1071.22,337.155, 7.3805e-003,1
1074.99,338.52, 7.4081e-003,1
1078.64,339.885, 7.4353e-003,1
1082.2,341.25, 7.4605e-003,1
1085.46,342.615, 7.4836e-003,1
1089.04,343.98, 7.5038e-003,1
1093.08,345.345, 7.5317e-003,1
1097.09,346.71, 7.5577e-003,1
1100.8,348.075, 7.5832e-003,1
1104.43,349.44, 7.6082e-003,1
1108.2,350.805, 7.6339e-003,1
1111.92,352.17, 7.6594e-003,1
1115.58,353.535, 7.6853e-003,1
1119.24,354.9, 7.7097e-003,1
1123.39,356.265, 7.7366e-003,1
1126.96,357.63, 7.7632e-003,1
1130.76,358.995, 7.7882e-003,1
1134.52,360.36, 7.8122e-003,1
1138.33,361.725, 7.8418e-003,1
1141.74,363.09, 7.8656e-003,1
1145.94,364.455, 7.8940e-003,1
1149.42,365.82, 7.9188e-003,1
1153.34,367.185, 7.9450e-003,1
1157.11,368.55, 7.9804e-003,1
1161.13,369.915, 8.0064e-003,1
1165.62,371.28, 8.0369e-003,1
1171.05,372.645, 8.0814e-003,1
1174.85,374.01, 8.1150e-003,1
1178.85,375.375, 8.1498e-003,1
1182.44,376.74, 8.1835e-003,1
1185.97,378.105, 8.2169e-003,1
1189.47,379.47, 8.2493e-003,1
1193.01,380.835, 8.2824e-003,1
1196.42,382.2, 8.3149e-003,1
1199.92,383.565, 8.3480e-003,1
1203.71,384.93, 8.3832e-003,1
1207.6,386.295, 8.4205e-003,1
1208.31,387.112, 8.4560e-003,2
1197.48,387.742, 8.4518e-003,2
1180.44,388.372, 8.3525e-003,2
1163.07,389.002, 8.2297e-003,2
1146.14,389.632, 8.1137e-003,2
1128.96,390.262, 8.0001e-003,2
1111.36,390.892, 7.8861e-003,2
1093.47,391.522, 7.7700e-003,2
1075.45,392.152, 7.6522e-003,2
1057.4,392.782, 7.5304e-003,2
1039.43,393.412, 7.4070e-003,2
1021.56,394.042, 7.2829e-003,2
1003.77,394.672, 7.1570e-003,2
 986.052,395.302, 7.0291e-003,2
 968.442,395.932, 6.9005e-003,2
 967.061,395.982, 6.8901e-003,2