File: data/14.1mm-083019/moon000s1r1-15mm-091219.csv
#EXPORTTYPE:           ,DATA ALL
#FILE:                 ,moonstoneS1.ngb-sle
#FORMAT:               ,NETZSCH5
#FTYPE:                ,ANSI
#IDENTITY:             ,moonstone
#DECIMAL:              ,POINT
#SEPARATOR:            ,COMMA
#MTYPE:                ,DIL
#INSTRUMENT:           ,NETZSCH DIL 402C
#PROJECT:              ,feldspar
#DATE/TIME:            ,9/12/2019 10:20:17 AM (UTC-5)
#CORR. FILE:           ,
#TEMPCAL:              ,TCALZERO.TMX
#LABORATORY:           ,Mineral Physics
#OPERATOR:             ,PAG
#REMARK:               ,bare, norm start, for bytown and rocks moonstone Or-Ab solid soln box 1 prob 010 or 001thin
#SAMPLE:               ,fmu-box1
#SAMPLE LENGTH /mm:    ,14.978
#MATERIAL:             ,sapphire stnd
#MEASMODE:             ,Standard Expansion
#PURGE GAS 1:          ,ARGON
#FLOW RATE 1 /(ml/min):,75
#M.RANGE /µm:          ,500
#CORR. CODE:           ,010
#RANGE:                ,20.0°C/3.0(K/min)/900.0°C
#SEGMENT:              ,S1/1
#SEG. 1:               ,20.0°C/3.0(K/min)/900.0°C

##Temp./°C,Time/min,dL/Lo
 22.51000,  0.00000, 2.2189e-005
 22.56700,  0.84500, 2.8289e-005
 22.60700,  1.69000, 2.8975e-005
 22.63700,  2.53500, 2.8180e-005
 22.65600,  3.38000, 2.6738e-005
 22.84300,  4.22500, 2.3769e-005
 23.82000,  5.07000, 1.1769e-005
 26.04400,  5.91500,-5.7940e-006
 29.31600,  6.76000,-2.2609e-005
 33.21800,  7.60500,-3.0104e-005
 37.27800,  8.45000,-2.8331e-005
 41.35200,  9.29500,-1.9127e-005
 45.47700, 10.14000,-6.8399e-006
 49.76300, 10.98500, 7.3614e-006
 54.29100, 11.83000, 2.3413e-005
 58.96200, 12.67500, 4.1838e-005
 63.70000, 13.52000, 6.3944e-005
 68.43400, 14.36500, 8.9841e-005
 73.12900, 15.21000, 1.1865e-004
 77.76000, 16.05500, 1.4941e-004
 82.34700, 16.90000, 1.8196e-004
 86.87900, 17.74500, 2.1491e-004
 91.33100, 18.59000, 2.4834e-004
 95.75000, 19.43500, 2.8247e-004
100.075, 20.28000, 3.1660e-004
104.36, 21.12500, 3.5087e-004
108.573, 21.97000, 3.8548e-004
112.765, 22.81500, 4.1992e-004
116.926, 23.66000, 4.5434e-004
121.044, 24.50500, 4.8802e-004
125.136, 25.35000, 5.2241e-004
129.195, 26.19500, 5.5611e-004
133.232, 27.04000, 5.9033e-004
137.234, 27.88500, 6.2441e-004
141.217, 28.73000, 6.5797e-004
145.199, 29.57500, 6.9173e-004
149.117, 30.42000, 7.2545e-004
153.041, 31.26500, 7.5883e-004
156.936, 32.11000, 7.9265e-004
160.825, 32.95500, 8.2635e-004
164.701, 33.80000, 8.5991e-004
168.544, 34.64500, 8.9341e-004
172.378, 35.49000, 9.2700e-004
176.198, 36.33500, 9.6080e-004
180.001, 37.18000, 9.9406e-004
183.794, 38.02500, 1.0280e-003
187.567, 38.87000, 1.0615e-003
191.327, 39.71500, 1.0951e-003
195.067, 40.56000, 1.1287e-003
198.804, 41.40500, 1.1628e-003
202.508, 42.25000, 1.1962e-003
206.197, 43.09500, 1.2300e-003
209.871, 43.94000, 1.2634e-003
213.519, 44.78500, 1.2968e-003
217.151, 45.63000, 1.3300e-003
220.782, 46.47500, 1.3648e-003
224.369, 47.32000, 1.3979e-003
227.983, 48.16500, 1.4322e-003
231.554, 49.01000, 1.4660e-003
235.113, 49.85500, 1.4996e-003
238.641, 50.70000, 1.5333e-003
242.16, 51.54500, 1.5672e-003
245.669, 52.39000, 1.6013e-003
249.159, 53.23500, 1.6351e-003
252.641, 54.08000, 1.6691e-003
256.106, 54.92500, 1.7030e-003
259.566, 55.77000, 1.7365e-003
262.993, 56.61500, 1.7705e-003
266.415, 57.46000, 1.8050e-003
269.806, 58.30500, 1.8387e-003
273.167, 59.15000, 1.8723e-003
276.544, 59.99500, 1.9069e-003
279.875, 60.84000, 1.9406e-003
283.227, 61.68500, 1.9753e-003
286.551, 62.53000, 2.0088e-003
289.854, 63.37500, 2.0434e-003
293.148, 64.22000, 2.0783e-003
296.417, 65.06500, 2.1134e-003
299.68, 65.91000, 2.1476e-003
302.942, 66.75500, 2.1829e-003
306.186, 67.60000, 2.2171e-003
309.407, 68.44500, 2.2518e-003
312.611, 69.29000, 2.2874e-003
315.799, 70.13500, 2.3230e-003
318.997, 70.98000, 2.3619e-003
322.172, 71.82500, 2.4076e-003
325.332, 72.67000, 2.4612e-003
328.458, 73.51500, 2.4812e-003
331.566, 74.36000, 2.5918e-003
334.687, 75.20500, 2.7004e-003
337.781, 76.05000, 2.7559e-003
340.871, 76.89500, 3.0596e-003
343.955, 77.74000, 3.0722e-003
347.022, 78.58500, 3.1343e-003
350.084, 79.43000, 3.1539e-003
353.125, 80.27500, 3.1740e-003
356.153, 81.12000, 3.1977e-003
359.183, 81.96500, 3.2970e-003
362.189, 82.81000, 3.3244e-003
365.191, 83.65500, 3.3466e-003
368.184, 84.50000, 3.3732e-003
371.176, 85.34500, 3.3910e-003
374.134, 86.19000, 3.4438e-003
377.071, 87.03500, 3.4617e-003
379.963, 87.88000, 3.4929e-003
382.858, 88.72500, 3.5146e-003
385.828, 89.57000, 3.5735e-003
388.867, 90.41500, 3.5724e-003
391.92, 91.26000, 3.5965e-003
394.957, 92.10500, 3.6218e-003
397.955, 92.95000, 3.6542e-003
400.927, 93.79500, 3.6900e-003
403.861, 94.64000, 3.7266e-003
406.782, 95.48500, 3.7471e-003
409.677, 96.33000, 3.7704e-003
412.547, 97.17500, 3.7948e-003
415.399, 98.02000, 3.8272e-003
418.231, 98.86500, 3.8449e-003
421.049, 99.71000, 3.8690e-003
423.845,100.555, 3.8937e-003
426.647,101.4, 3.9189e-003
429.419,102.245, 3.9422e-003
432.192,103.09, 3.9709e-003
434.957,103.935, 3.9957e-003
437.71,104.78, 4.0274e-003
440.456,105.625, 4.0515e-003
443.193,106.47, 4.0763e-003
445.925,107.315, 4.1010e-003
448.653,108.16, 4.1255e-003
451.37,109.005, 4.1495e-003
454.087,109.85, 4.1744e-003
456.789,110.695, 4.1998e-003
459.483,111.54, 4.2239e-003
462.162,112.385, 4.2476e-003
464.856,113.23, 4.2728e-003
467.536,114.075, 4.2969e-003
470.21,114.92, 4.3229e-003
472.874,115.765, 4.3472e-003
475.532,116.61, 4.3714e-003
478.177,117.455, 4.3966e-003
480.823,118.3, 4.4215e-003
483.467,119.145, 4.4467e-003
486.093,119.99, 4.4711e-003
488.721,120.835, 4.4957e-003
491.344,121.68, 4.5210e-003
493.949,122.525, 4.5452e-003
496.542,123.37, 4.5694e-003
499.154,124.215, 4.5947e-003
501.758,125.06, 4.6190e-003
504.354,125.905, 4.6428e-003
506.939,126.75, 4.6687e-003
509.519,127.595, 4.6933e-003
512.097,128.44, 4.7168e-003
514.671,129.285, 4.7414e-003
517.206,130.13, 4.7656e-003
519.748,130.975, 4.7912e-003
522.255,131.82, 4.8181e-003
524.747,132.665, 4.8425e-003
527.261,133.51, 4.8659e-003
529.847,134.355, 4.8889e-003
532.477,135.2, 4.9131e-003
535.117,136.045, 4.9389e-003
537.733,136.89, 4.9627e-003
540.314,137.735, 4.9867e-003
542.871,138.58, 5.0113e-003
545.421,139.425, 5.0358e-003
547.95,140.27, 5.0599e-003
550.472,141.115, 5.0839e-003
552.974,141.96, 5.1145e-003
555.479,142.805, 5.1348e-003
557.946,143.65, 5.1589e-003
560.37,144.495, 5.1830e-003
562.762,145.34, 5.2088e-003
565.189,146.185, 5.2313e-003
567.672,147.03, 5.2550e-003
570.231,147.875, 5.2765e-003
572.782,148.72, 5.3001e-003
575.312,149.565, 5.3236e-003
577.819,150.41, 5.3473e-003
580.323,151.255, 5.3701e-003
582.803,152.1, 5.3936e-003
585.267,152.945, 5.4186e-003
587.71,153.79, 5.4410e-003
590.136,154.635, 5.4653e-003
592.564,155.48, 5.4875e-003
594.982,156.325, 5.5105e-003
597.393,157.17, 5.5339e-003
599.803,158.015, 5.5571e-003
602.212,158.86, 5.5797e-003
604.603,159.705, 5.6033e-003
606.988,160.55, 5.6269e-003
609.376,161.395, 5.6504e-003
611.751,162.24, 5.6736e-003
614.136,163.085, 5.6963e-003
616.513,163.93, 5.7198e-003
618.885,164.775, 5.7436e-003
621.254,165.62, 5.7670e-003
623.615,166.465, 5.7906e-003
625.979,167.31, 5.8145e-003
628.334,168.155, 5.8379e-003
630.692,169, 5.8613e-003
633.045,169.845, 5.8835e-003
635.408,170.69, 5.9077e-003
637.77,171.535, 5.9312e-003
640.125,172.38, 5.9553e-003
642.467,173.225, 5.9792e-003
644.776,174.07, 6.0041e-003
647.07,174.915, 6.0287e-003
649.339,175.76, 6.0526e-003
651.644,176.605, 6.0739e-003
654.012,177.45, 6.0970e-003
656.394,178.295, 6.1200e-003
658.789,179.14, 6.1439e-003
661.177,179.985, 6.1673e-003
663.538,180.83, 6.1908e-003
665.876,181.675, 6.2142e-003
668.21,182.52, 6.2371e-003
670.541,183.365, 6.2603e-003
672.861,184.21, 6.2833e-003
675.147,185.055, 6.3059e-003
677.433,185.9, 6.3265e-003
679.716,186.745, 6.3490e-003
682.004,187.59, 6.3746e-003
684.272,188.435, 6.3967e-003
686.541,189.28, 6.4195e-003
688.802,190.125, 6.4421e-003
691.06,190.97, 6.4647e-003
693.296,191.815, 6.4873e-003
695.504,192.66, 6.5106e-003
697.711,193.505, 6.5329e-003
699.938,194.35, 6.5529e-003
702.169,195.195, 6.5753e-003
704.41,196.04, 6.5993e-003
706.612,196.885, 6.6219e-003
708.833,197.73, 6.6437e-003
711.046,198.575, 6.6653e-003
713.271,199.42, 6.6873e-003
715.497,200.265, 6.7092e-003
717.722,201.11, 6.7313e-003
719.918,201.955, 6.7533e-003
722.089,202.8, 6.7760e-003
724.237,203.645, 6.7987e-003
726.393,204.49, 6.8201e-003
728.611,205.335, 6.8404e-003
730.882,206.18, 6.8604e-003
733.156,207.025, 6.8821e-003
735.421,207.87, 6.9040e-003
737.68,208.715, 6.9273e-003
739.939,209.56, 6.9487e-003
742.19,210.405, 6.9708e-003
744.413,211.25, 6.9920e-003
746.65,212.095, 7.0142e-003
748.865,212.94, 7.0359e-003
751.055,213.785, 7.0569e-003
753.268,214.63, 7.0801e-003
755.477,215.475, 7.1019e-003
757.675,216.32, 7.1234e-003
759.87,217.165, 7.1435e-003
762.051,218.01, 7.1650e-003
764.225,218.855, 7.1869e-003
766.402,219.7, 7.2082e-003
768.578,220.545, 7.2303e-003
770.762,221.39, 7.2533e-003
772.936,222.235, 7.2749e-003
775.121,223.08, 7.2985e-003
777.289,223.925, 7.3219e-003
779.445,224.77, 7.3478e-003
781.617,225.615, 7.3674e-003
783.792,226.46, 7.3884e-003
785.921,227.305, 7.4105e-003
788.01,228.15, 7.4336e-003
790.052,228.995, 7.4653e-003
792.036,229.84, 7.4875e-003
794.087,230.685, 7.5100e-003
796.226,231.53, 7.5312e-003
798.386,232.375, 7.5545e-003
800.564,233.22, 7.5742e-003
802.725,234.065, 7.5963e-003
804.864,234.91, 7.6191e-003
807.006,235.755, 7.6405e-003
809.121,236.6, 7.6644e-003
811.255,237.445, 7.6872e-003
813.333,238.29, 7.7091e-003
815.396,239.135, 7.7287e-003
817.46,239.98, 7.7478e-003
819.507,240.825, 7.7683e-003
821.594,241.67, 7.7888e-003
823.686,242.515, 7.8133e-003
825.84,243.36, 7.8355e-003
828.037,244.205, 7.8631e-003
830.212,245.05, 7.8841e-003
832.353,245.895, 7.9057e-003
834.492,246.74, 7.9288e-003
836.645,247.585, 7.9483e-003
838.796,248.43, 7.9710e-003
840.965,249.275, 8.0121e-003
843.142,250.12, 8.0371e-003
845.311,250.965, 8.0610e-003
847.483,251.81, 8.0854e-003
849.617,252.655, 8.1098e-003
850.334,252.937, 8.1176e-003