File: data/14.1mm-083019/moon000s1r2-15mm-091519.csv
#EXPORTTYPE:           ,DATA ALL
#FILE:                 ,moonstoneS1r2.ngb-sle
#FORMAT:               ,NETZSCH5
#FTYPE:                ,ANSI
#IDENTITY:             ,moonstone 1 rerun
#DECIMAL:              ,POINT
#SEPARATOR:            ,COMMA
#MTYPE:                ,DIL
#INSTRUMENT:           ,NETZSCH DIL 402C
#PROJECT:              ,feldspar
#DATE/TIME:            ,9/15/2019 3:17:57 PM (UTC-5)
#CORR. FILE:           ,
#TEMPCAL:              ,TCALZERO.TMX
#LABORATORY:           ,Mineral Physics
#OPERATOR:             ,PAG
#REMARK:               ,bare, norm start, for bytown and rocks fast run 5 Kmin, moonstone 1, 010 or 001
#SAMPLE:               ,moonstone 1 heated
#SAMPLE LENGTH /mm:    ,14.978
#MATERIAL:             ,sapphire stnd
#MEASMODE:             ,Standard Expansion
#PURGE GAS 1:          ,ARGON
#FLOW RATE 1 /(ml/min):,75
#M.RANGE /µm:          ,500
#CORR. CODE:           ,010
#RANGE:                ,20.0°C/5.0(K/min)/425.0°C
#SEGMENT:              ,S1/1
#SEG. 1:               ,20.0°C/5.0(K/min)/425.0°C

##Temp./°C,Time/min,dL/Lo
 21.75600, 0.00000, 1.6801e-005
 21.73900, 0.23833, 1.6271e-005
 21.74100, 0.47667, 1.5626e-005
 21.72100, 0.71500, 1.5183e-005
 21.69300, 0.95333, 1.4165e-005
 21.67800, 1.19167, 1.3282e-005
 21.64600, 1.43000, 1.2410e-005
 21.61900, 1.66833, 1.1600e-005
 21.60700, 1.90667, 1.1072e-005
 21.60600, 2.14500, 1.0188e-005
 21.63000, 2.38333, 9.0579e-006
 21.71700, 2.62167, 7.1508e-006
 21.90600, 2.86000, 5.0794e-006
 22.19600, 3.09833, 2.0191e-006
 22.60500, 3.33667,-2.4770e-006
 23.18200, 3.57500,-7.3819e-006
 23.92500, 3.81333,-1.3042e-005
 24.84600, 4.05167,-2.2659e-005
 25.91000, 4.29000,-3.2124e-005
 27.14800, 4.52833,-4.1656e-005
 28.52500, 4.76667,-5.1477e-005
 30.04000, 5.00500,-6.0592e-005
 31.66100, 5.24333,-6.9262e-005
 33.38600, 5.48167,-7.7759e-005
 35.17500, 5.72000,-8.4642e-005
 37.01300, 5.95833,-9.0862e-005
 38.92400, 6.19667,-9.5345e-005
 40.82500, 6.43500,-9.9532e-005
 42.76800, 6.67333,-1.0140e-004
 44.69900, 6.91167,-1.0249e-004
 46.65300, 7.15000,-1.0326e-004
 48.61100, 7.38833,-1.0229e-004
 50.57000, 7.62667,-1.0170e-004
 52.51400, 7.86500,-9.9394e-005
 54.48400, 8.10333,-9.6945e-005
 56.46800, 8.34167,-9.3198e-005
 58.46100, 8.58000,-8.9132e-005
 60.47600, 8.81833,-8.5427e-005
 62.50800, 9.05667,-8.1161e-005
 64.55900, 9.29500,-7.5641e-005
 66.63900, 9.53333,-7.1216e-005
 68.72800, 9.77167,-6.5159e-005
 70.82500,10.01000,-5.9837e-005
 72.95100,10.24833,-5.2221e-005
 75.10100,10.48667,-4.5323e-005
 77.24400,10.72500,-3.8384e-005
 79.39100,10.96333,-3.0039e-005
 81.54400,11.20167,-2.1926e-005
 83.67800,11.44000,-1.2876e-005
 85.82600,11.67833,-4.1574e-006
 87.96500,11.91667, 6.0219e-006
 90.11800,12.15500, 1.5426e-005
 92.25100,12.39333, 2.5585e-005
 94.36600,12.63167, 3.6596e-005
 96.48000,12.87000, 4.7783e-005
 98.58000,13.10833, 5.8381e-005
100.674,13.34667, 6.9910e-005
102.758,13.58500, 8.1949e-005
104.836,13.82333, 9.3608e-005
106.887,14.06167, 1.0496e-004
108.951,14.30000, 1.1696e-004
111.01,14.53833, 1.2909e-004
113.061,14.77667, 1.4190e-004
115.091,15.01500, 1.5419e-004
117.138,15.25333, 1.6662e-004
119.162,15.49167, 1.7880e-004
121.193,15.73000, 1.9203e-004
123.202,15.96833, 2.0442e-004
125.217,16.20667, 2.1734e-004
127.22,16.44500, 2.3043e-004
129.213,16.68333, 2.4292e-004
131.202,16.92167, 2.5567e-004
133.189,17.16000, 2.6868e-004
135.162,17.39833, 2.8219e-004
137.128,17.63667, 2.9128e-004
139.095,17.87500, 3.0740e-004
141.055,18.11333, 3.2261e-004
143.007,18.35167, 3.3466e-004
144.958,18.59000, 3.4743e-004
146.895,18.82833, 3.6036e-004
148.827,19.06667, 3.7416e-004
150.742,19.30500, 3.8705e-004
152.657,19.54333, 4.0016e-004
154.563,19.78167, 4.1313e-004
156.465,20.02000, 4.2617e-004
158.37,20.25833, 4.3938e-004
160.256,20.49667, 4.5244e-004
162.16,20.73500, 4.6607e-004
164.043,20.97333, 4.7855e-004
165.921,21.21167, 4.9213e-004
167.804,21.45000, 5.0488e-004
169.663,21.68833, 5.1767e-004
171.509,21.92667, 5.3015e-004
173.375,22.16500, 5.4336e-004
175.243,22.40333, 5.5621e-004
177.09,22.64167, 5.6966e-004
178.935,22.88000, 5.8225e-004
180.769,23.11833, 5.9510e-004
182.608,23.35667, 6.0855e-004
184.438,23.59500, 6.2163e-004
186.258,23.83333, 6.3406e-004
188.086,24.07167, 6.4739e-004
189.907,24.31000, 6.6075e-004
191.711,24.54833, 6.7313e-004
193.52,24.78667, 6.8578e-004
195.331,25.02500, 6.9897e-004
197.133,25.26333, 7.1223e-004
198.921,25.50167, 7.2469e-004
200.711,25.74000, 7.3772e-004
202.483,25.97833, 7.5022e-004
204.259,26.21667, 7.6285e-004
206.029,26.45500, 7.7570e-004
207.793,26.69333, 7.8819e-004
209.556,26.93167, 8.0059e-004
211.312,27.17000, 8.1326e-004
213.066,27.40833, 8.2627e-004
214.825,27.64667, 8.3838e-004
216.572,27.88500, 8.5126e-004
218.312,28.12333, 8.6381e-004
220.045,28.36167, 8.7598e-004
221.782,28.60000, 8.8856e-004
223.493,28.83833, 9.0132e-004
225.217,29.07667, 9.1380e-004
226.952,29.31500, 9.2588e-004
228.663,29.55333, 9.3893e-004
230.375,29.79167, 9.5107e-004
232.088,30.03000, 9.6387e-004
233.794,30.26833, 9.7604e-004
235.483,30.50667, 9.8864e-004
237.188,30.74500, 1.0008e-003
238.875,30.98333, 1.0133e-003
240.569,31.22167, 1.0252e-003
242.249,31.46000, 1.0381e-003
243.93,31.69833, 1.0506e-003
245.604,31.93667, 1.0629e-003
247.287,32.17500, 1.0751e-003
248.953,32.41333, 1.0872e-003
250.618,32.65167, 1.0994e-003
252.283,32.89000, 1.1119e-003
253.934,33.12833, 1.1244e-003
255.586,33.36667, 1.1367e-003
257.231,33.60500, 1.1490e-003
258.877,33.84333, 1.1610e-003
260.516,34.08167, 1.1731e-003
262.154,34.32000, 1.1854e-003
263.784,34.55833, 1.1977e-003
265.423,34.79667, 1.2098e-003
267.045,35.03500, 1.2213e-003
268.66,35.27333, 1.2335e-003
270.285,35.51167, 1.2456e-003
271.887,35.75000, 1.2575e-003
273.498,35.98833, 1.2694e-003
275.115,36.22667, 1.2818e-003
276.721,36.46500, 1.2934e-003
278.333,36.70333, 1.3055e-003
279.922,36.94167, 1.3176e-003
281.515,37.18000, 1.3292e-003
283.089,37.41833, 1.3411e-003
284.673,37.65667, 1.3529e-003
286.25,37.89500, 1.3642e-003
287.829,38.13333, 1.3764e-003
289.398,38.37167, 1.3877e-003
290.971,38.61000, 1.3996e-003
292.542,38.84833, 1.4113e-003
294.102,39.08667, 1.4233e-003
295.676,39.32500, 1.4351e-003
297.234,39.56333, 1.4468e-003
298.783,39.80167, 1.4581e-003
300.328,40.04000, 1.4698e-003
301.86,40.27833, 1.4811e-003
303.402,40.51667, 1.4929e-003
304.941,40.75500, 1.5043e-003
306.487,40.99333, 1.5157e-003
308.022,41.23167, 1.5273e-003
309.553,41.47000, 1.5387e-003
311.085,41.70833, 1.5501e-003
312.61,41.94667, 1.5615e-003
314.136,42.18500, 1.5729e-003
315.66,42.42333, 1.5844e-003
317.182,42.66167, 1.5960e-003
318.696,42.90000, 1.6072e-003
320.202,43.13833, 1.6182e-003
321.709,43.37667, 1.6298e-003
323.197,43.61500, 1.6410e-003
324.704,43.85333, 1.6523e-003
326.198,44.09167, 1.6638e-003
327.693,44.33000, 1.6748e-003
329.179,44.56833, 1.6860e-003
330.656,44.80667, 1.6976e-003
332.142,45.04500, 1.7085e-003
333.619,45.28333, 1.7194e-003
335.09,45.52167, 1.7305e-003
336.572,45.76000, 1.7416e-003
338.04,45.99833, 1.7527e-003
339.513,46.23667, 1.7641e-003
340.99,46.47500, 1.7750e-003
342.446,46.71333, 1.7858e-003
343.903,46.95167, 1.7971e-003
345.369,47.19000, 1.8077e-003
346.825,47.42833, 1.8188e-003
348.27,47.66667, 1.8295e-003
349.725,47.90500, 1.8408e-003
351.181,48.14333, 1.8517e-003
352.62,48.38167, 1.8625e-003
354.06,48.62000, 1.8731e-003
355.394,48.85833, 1.8834e-003
356.832,49.09667, 1.8944e-003
358.264,49.33500, 1.9050e-003
359.707,49.57333, 1.9160e-003
361.131,49.81167, 1.9265e-003
362.556,50.05000, 1.9373e-003
363.971,50.28833, 1.9481e-003
365.384,50.52667, 1.9588e-003
366.814,50.76500, 1.9698e-003
368.23,51.00333, 1.9801e-003
369.641,51.24167, 1.9906e-003
371.052,51.48000, 2.0014e-003
372.455,51.71833, 2.0118e-003
373.864,51.95667, 2.0229e-003
375.272,52.19500, 2.0329e-003
376.673,52.43333, 2.0438e-003
378.071,52.67167, 2.0543e-003
379.461,52.91000, 2.0643e-003
380.86,53.14833, 2.0752e-003
382.25,53.38667, 2.0857e-003
383.638,53.62500, 2.0961e-003
385.036,53.86333, 2.1069e-003
386.416,54.10167, 2.1174e-003
387.794,54.34000, 2.1279e-003
389.178,54.57833, 2.1383e-003
390.557,54.81667, 2.1483e-003
391.936,55.05500, 2.1592e-003
393.308,55.29333, 2.1696e-003
394.68,55.53167, 2.1797e-003
396.045,55.77000, 2.1900e-003
397.419,56.00833, 2.2004e-003
398.78,56.24667, 2.2107e-003
400.146,56.48500, 2.2203e-003
401.508,56.72333, 2.2308e-003
402.871,56.96167, 2.2414e-003
404.226,57.20000, 2.2514e-003
405.579,57.43833, 2.2613e-003
406.92,57.67667, 2.2718e-003
408.277,57.91500, 2.2821e-003
409.623,58.15333, 2.2919e-003
410.966,58.39167, 2.3017e-003
412.301,58.63000, 2.3119e-003
413.635,58.86833, 2.3220e-003
414.973,59.10667, 2.3316e-003
416.308,59.34500, 2.3414e-003
417.644,59.58333, 2.3517e-003
418.974,59.82167, 2.3612e-003
420.305,60.06000, 2.3711e-003
421.637,60.29833, 2.3811e-003
422.966,60.53667, 2.3908e-003
424.296,60.77500, 2.4010e-003
425.613,61.01333, 2.4109e-003
426.933,61.25167, 2.4207e-003
428.248,61.49000, 2.4304e-003
429.573,61.72833, 2.4402e-003
430.875,61.96667, 2.4497e-003
432.187,62.20500, 2.4596e-003
433.495,62.44333, 2.4692e-003
434.807,62.68167, 2.4792e-003
436.116,62.92000, 2.4887e-003
437.427,63.15833, 2.4985e-003
438.719,63.39667, 2.5080e-003
440.029,63.63500, 2.5183e-003
441.334,63.87333, 2.5281e-003
442.624,64.11167, 2.5377e-003
443.92,64.35000, 2.5471e-003
445.21,64.58833, 2.5573e-003
446.501,64.82667, 2.5670e-003
447.789,65.06500, 2.5765e-003
449.078,65.30333, 2.5864e-003
450.36,65.54167, 2.5955e-003
451.642,65.78000, 2.6048e-003
452.924,66.01833, 2.6146e-003
454.204,66.25667, 2.6241e-003
455.487,66.49500, 2.6336e-003
456.764,66.73333, 2.6435e-003
458.038,66.97167, 2.6530e-003
459.31,67.21000, 2.6626e-003
459.891,67.31833, 2.6664e-003