File: data/8.1mm/albAmel010sTr1-8.7mm.csv
#EXPORTTYPE:           ,DATA ALL
#FILE:                 ,albAmel010Trun1.ngb-sle
#FORMAT:               ,NETZSCH5
#FTYPE:                ,ANSI
#IDENTITY:             ,albite 010
#DECIMAL:              ,POINT
#SEPARATOR:            ,COMMA
#MTYPE:                ,DIL
#INSTRUMENT:           ,NETZSCH DIL 402C
#PROJECT:              ,feldspar
#DATE/TIME:            ,8/22/2019 10:14:26 AM (UTC-5)
#CORR. FILE:           ,
#TEMPCAL:              ,TCALZERO.TMX
#LABORATORY:           ,Mineral Physics
#OPERATOR:             ,PAG
#REMARK:               ,bare, norm start, for short plageioclase, sapphire, amel alb 010 twin
#SAMPLE:               ,amelia twin
#SAMPLE LENGTH /mm:    ,8.715
#MATERIAL:             ,sapphire stnd
#MEASMODE:             ,Standard Expansion
#PURGE GAS 1:          ,ARGON
#FLOW RATE 1 /(ml/min):,75
#M.RANGE /µm:          ,500
#CORR. CODE:           ,010
#RANGE:                ,20.0°C/3.0(K/min)/1020.0°C
#SEGMENT:              ,S1/1
#SEG. 1:               ,20.0°C/3.0(K/min)/1020.0°C

##Temp./°C,Time/min,dL/Lo
  21.35100,  0.00000, 1.3908e-005
  24.85100,  5.36457,-5.4983e-005
  28.35100,  6.25585,-8.9865e-005
  31.85100,  7.02302,-1.0663e-004
  35.35100,  7.76022,-1.0624e-004
  38.85100,  8.49220,-9.5223e-005
  42.35100,  9.22073,-7.5103e-005
  45.85100,  9.93828,-5.2122e-005
  49.35100, 10.63545,-2.6517e-005
  52.85100, 11.31602, 1.6796e-006
  56.35100, 11.98442, 3.1806e-005
  59.85100, 12.64743, 6.3601e-005
  63.35100, 13.30671, 9.9706e-005
  66.85100, 13.96837, 1.3714e-004
  70.35100, 14.63173, 1.7717e-004
  73.85100, 15.29620, 2.1871e-004
  77.35100, 15.96417, 2.6071e-004
  80.85100, 16.63363, 3.0488e-004
  84.35100, 17.30973, 3.4854e-004
  87.85100, 17.98506, 3.9384e-004
  91.35100, 18.66845, 4.3900e-004
  94.85100, 19.35554, 4.8515e-004
  98.35100, 20.04840, 5.3155e-004
 101.851, 20.74687, 5.7859e-004
 105.351, 21.44734, 6.2653e-004
 108.851, 22.15122, 6.7492e-004
 112.351, 22.86288, 7.2292e-004
 115.851, 23.57338, 7.7179e-004
 119.351, 24.28969, 8.2077e-004
 122.851, 25.01009, 8.7005e-004
 126.351, 25.73445, 9.1937e-004
 129.851, 26.46060, 9.6944e-004
 133.351, 27.19139, 1.0187e-003
 136.851, 27.92648, 1.0688e-003
 140.351, 28.66414, 1.1191e-003
 143.851, 29.40282, 1.1693e-003
 147.351, 30.14486, 1.2196e-003
 150.851, 30.88954, 1.2703e-003
 154.351, 31.63760, 1.3210e-003
 157.851, 32.39111, 1.3716e-003
 161.351, 33.14453, 1.4224e-003
 164.851, 33.90236, 1.4733e-003
 168.351, 34.66224, 1.5242e-003
 171.851, 35.42579, 1.5754e-003
 175.351, 36.19459, 1.6271e-003
 178.851, 36.96496, 1.6795e-003
 182.351, 37.73868, 1.7341e-003
 185.851, 38.51582, 1.7850e-003
 189.351, 39.29804, 1.8379e-003
 192.851, 40.08005, 1.8904e-003
 196.351, 40.86448, 1.9438e-003
 199.851, 41.65534, 1.9968e-003
 203.351, 42.45113, 2.0506e-003
 206.851, 43.24707, 2.1042e-003
 210.351, 44.04610, 2.1575e-003
 213.851, 44.85072, 2.2109e-003
 217.351, 45.65561, 2.2640e-003
 220.851, 46.46609, 2.3178e-003
 224.351, 47.28066, 2.3723e-003
 227.851, 48.10136, 2.4323e-003
 231.351, 48.91978, 2.4889e-003
 234.851, 49.74461, 2.5432e-003
 238.351, 50.57412, 2.6014e-003
 241.851, 51.41108, 2.6615e-003
 245.351, 52.25616, 2.7233e-003
 248.851, 53.10424, 2.7830e-003
 252.351, 53.95179, 2.8373e-003
 255.851, 54.78910, 2.8909e-003
 259.351, 55.61256, 2.9431e-003
 262.851, 56.42769, 2.9976e-003
 266.351, 57.24404, 3.0502e-003
 269.851, 58.06985, 3.1058e-003
 273.351, 58.90710, 3.1629e-003
 276.851, 59.75171, 3.2204e-003
 280.351, 60.60564, 3.2778e-003
 283.851, 61.47044, 3.3375e-003
 287.351, 62.34090, 3.3943e-003
 290.851, 63.22043, 3.4535e-003
 294.351, 64.10567, 3.5123e-003
 297.851, 65.00097, 3.5770e-003
 301.351, 65.90131, 3.6350e-003
 304.851, 66.80486, 3.6984e-003
 308.351, 67.71570, 3.7561e-003
 311.851, 68.63111, 3.8132e-003
 315.351, 69.55106, 3.8742e-003
 318.851, 70.47526, 3.9332e-003
 322.351, 71.40215, 3.9911e-003
 325.851, 72.33592, 4.0496e-003
 329.351, 73.27145, 4.1082e-003
 332.851, 74.21240, 4.1660e-003
 336.351, 75.15487, 4.2223e-003
 339.851, 76.10167, 4.2787e-003
 343.351, 77.05151, 4.3363e-003
 346.851, 78.00460, 4.3957e-003
 350.351, 78.96245, 4.4547e-003
 353.851, 79.92309, 4.5113e-003
 357.351, 80.88940, 4.5693e-003
 360.851, 81.85719, 4.6279e-003
 364.351, 82.83110, 4.6858e-003
 367.851, 83.80827, 4.7442e-003
 371.351, 84.79088, 4.8020e-003
 374.851, 85.77779, 4.8610e-003
 378.351, 86.76671, 4.9195e-003
 381.851, 87.75864, 4.9796e-003
 385.351, 88.75438, 5.0380e-003
 388.851, 89.75313, 5.0977e-003
 392.351, 90.75748, 5.1570e-003
 395.851, 91.77026, 5.2161e-003
 399.351, 92.77978, 5.2755e-003
 402.851, 93.79672, 5.3350e-003
 406.351, 94.81681, 5.3947e-003
 409.851, 95.84008, 5.4567e-003
 413.351, 96.86822, 5.5173e-003
 416.851, 97.90060, 5.5781e-003
 420.351, 98.93542, 5.6378e-003
 423.851, 99.97562, 5.6986e-003
 427.351,101.017, 5.7614e-003
 430.851,102.068, 5.8224e-003
 434.351,103.126, 5.8867e-003
 437.851,104.205, 5.9528e-003
 441.351,105.279, 6.0165e-003
 444.851,106.325, 6.0758e-003
 448.351,107.349, 6.1352e-003
 451.851,108.368, 6.1983e-003
 455.351,109.396, 6.2652e-003
 458.851,110.441, 6.3346e-003
 462.351,111.498, 6.4047e-003
 465.851,112.566, 6.4988e-003
 469.351,113.641, 6.5940e-003
 472.851,114.73, 6.6651e-003
 476.351,115.827, 6.7438e-003
 479.851,116.929, 6.8272e-003
 483.351,118.038, 6.8994e-003
 486.851,119.15, 6.9698e-003
 490.351,120.267, 7.0424e-003
 493.851,121.39, 7.1091e-003
 497.351,122.52, 7.1757e-003
 500.851,123.649, 7.2481e-003
 504.351,124.783, 7.3146e-003
 507.851,125.915, 7.3867e-003
 511.351,127.054, 7.4532e-003
 514.851,128.197, 7.5198e-003
 518.351,129.344, 7.5914e-003
 521.851,130.49, 7.6600e-003
 525.351,131.636, 7.7265e-003
 528.851,132.79, 7.7939e-003
 532.351,133.947, 7.8656e-003
 535.851,135.106, 7.9488e-003
 539.351,136.266, 8.0249e-003
 542.851,137.433, 8.0946e-003
 546.351,138.606, 8.1637e-003
 549.851,139.776, 8.2324e-003
 553.351,140.949, 8.3044e-003
 556.851,142.131, 8.3774e-003
 560.351,143.333, 8.4523e-003
 563.851,144.544, 8.5251e-003
 567.351,145.721, 8.5930e-003
 570.851,146.871, 8.6590e-003
 574.351,148.017, 8.7278e-003
 577.851,149.181, 8.7967e-003
 581.351,150.355, 8.8658e-003
 584.851,151.541, 8.9361e-003
 588.351,152.74, 9.0036e-003
 591.851,153.944, 9.0752e-003
 595.351,155.158, 9.1462e-003
 598.851,156.371, 9.2165e-003
 602.351,157.59, 9.2902e-003
 605.851,158.824, 9.3579e-003
 609.351,160.053, 9.4278e-003
 612.851,161.287, 9.4992e-003
 616.351,162.525, 9.5732e-003
 619.851,163.76, 9.6493e-003
 623.351,165.001, 9.7220e-003
 626.851,166.243, 9.7953e-003
 630.351,167.485, 9.8697e-003
 633.851,168.731, 9.9410e-003
 637.351,169.978, 1.0009e-002
 640.851,171.231, 1.0079e-002
 644.351,172.487, 1.0149e-002
 647.851,173.745, 1.0219e-002
 651.351,175.024, 1.0292e-002
 654.851,176.322, 1.0364e-002
 658.351,177.586, 1.0432e-002
 661.851,178.816, 1.0498e-002
 665.351,180.049, 1.0569e-002
 668.851,181.297, 1.0642e-002
 672.351,182.551, 1.0712e-002
 675.851,183.822, 1.0782e-002
 679.351,185.101, 1.0853e-002
 682.851,186.389, 1.0923e-002
 686.351,187.684, 1.0995e-002
 689.851,188.982, 1.1064e-002
 693.351,190.291, 1.1134e-002
 696.851,191.609, 1.1204e-002
 700.351,192.938, 1.1278e-002
 703.851,194.275, 1.1352e-002
 707.351,195.609, 1.1429e-002
 710.851,196.951, 1.1502e-002
 714.351,198.291, 1.1576e-002
 717.851,199.629, 1.1652e-002
 721.351,200.966, 1.1727e-002
 724.851,202.315, 1.1805e-002
 728.351,203.697, 1.1886e-002
 731.851,205.063, 1.1960e-002
 735.351,206.38, 1.2033e-002
 738.851,207.68, 1.2107e-002
 742.351,208.992, 1.2185e-002
 745.851,210.31, 1.2262e-002
 749.351,211.641, 1.2337e-002
 752.851,212.976, 1.2415e-002
 756.351,214.31, 1.2493e-002
 759.851,215.654, 1.2566e-002
 763.351,216.994, 1.2639e-002
 766.851,218.343, 1.2716e-002
 770.351,219.695, 1.2791e-002
 773.851,221.043, 1.2871e-002
 777.351,222.391, 1.2946e-002
 780.851,223.741, 1.3021e-002
 784.351,225.096, 1.3094e-002
 787.851,226.458, 1.3171e-002
 791.351,227.846, 1.3252e-002
 794.851,229.34, 1.3334e-002
 798.351,230.832, 1.3411e-002
 801.851,232.321, 1.3488e-002
 805.351,233.764, 1.3562e-002
 808.851,235.24, 1.3642e-002
 812.351,236.729, 1.3716e-002
 815.851,238.205, 1.3791e-002
 819.351,239.62, 1.3860e-002
 822.851,241.021, 1.3935e-002
 826.351,242.43, 1.4009e-002
 829.851,243.836, 1.4085e-002
 833.351,245.218, 1.4157e-002
 836.851,246.597, 1.4234e-002
 840.351,247.959, 1.4308e-002
 843.851,249.312, 1.4382e-002
 847.351,250.663, 1.4456e-002
 850.851,252.045, 1.4533e-002
 854.351,253.426, 1.4613e-002
 857.851,254.772, 1.4689e-002
 861.351,256.088, 1.4767e-002
 864.851,257.401, 1.4843e-002
 868.351,258.727, 1.4922e-002
 871.851,260.061, 1.5000e-002
 875.351,261.414, 1.5082e-002
 878.851,262.788, 1.5167e-002
 882.351,264.203, 1.5256e-002
 885.851,265.583, 1.5347e-002
 889.351,266.874, 1.5435e-002
 892.851,268.303, 1.5534e-002
 896.351,269.72, 1.5623e-002
 899.851,271.147, 1.5711e-002
 903.351,272.707, 1.5802e-002
 906.851,274.266, 1.5890e-002
 910.351,275.772, 1.5976e-002
 913.851,277.337, 1.6065e-002
 917.351,279.061, 1.6161e-002
 920.851,280.776, 1.6243e-002
 924.351,282.17, 1.6326e-002
 927.851,283.504, 1.6408e-002
 931.351,284.89, 1.6496e-002
 934.851,286.257, 1.6590e-002
 938.351,287.627, 1.6683e-002
 941.851,288.94, 1.6777e-002
 945.351,290.292, 1.6874e-002
 948.851,291.638, 1.6968e-002
 952.351,292.96, 1.7066e-002
 955.851,294.284, 1.7171e-002
 959.351,295.597, 1.7274e-002
 962.851,296.899, 1.7379e-002
 966.351,298.178, 1.7481e-002
 969.851,299.481, 1.7591e-002
 973.351,300.719, 1.7697e-002
 976.851,302.02, 1.7821e-002
 980.351,303.26, 1.7939e-002
 983.851,304.547, 1.8071e-002
 987.351,305.844, 1.8220e-002
 990.851,307.097, 1.8366e-002
 994.351,308.382, 1.8523e-002
 997.851,309.658, 1.8675e-002
1001.35,310.965, 1.8853e-002
1004.85,312.326, 1.9035e-002
1008.35,313.646, 1.9209e-002
1011.85,314.92, 1.9372e-002
1015.35,316.199, 1.9542e-002
1018.85,317.503, 1.9716e-002
1019.85,317.877, 1.9766e-002