File: data/8.1mm/fmt100sBr2-10.0mm.csv
#EXPORTTYPE:           ,DATA ALL
#FILE:                 ,fmt100Brun2.ngb-sle
#FORMAT:               ,NETZSCH5
#FTYPE:                ,ANSI
#IDENTITY:             ,fmt100Brun2
#DECIMAL:              ,POINT
#SEPARATOR:            ,COMMA
#MTYPE:                ,DIL
#INSTRUMENT:           ,NETZSCH DIL 402C
#PROJECT:              ,feldspar
#DATE/TIME:            ,8/18/2019 9:49:26 AM (UTC-5)
#CORR. FILE:           ,
#TEMPCAL:              ,TCALZERO.TMX
#LABORATORY:           ,Mineral Physics
#OPERATOR:             ,PAG
#REMARK:               ,bare, norm start, for oligoclase fmt tall, reheated
#SAMPLE:               ,fmt100B
#SAMPLE LENGTH /mm:    ,10.018
#MATERIAL:             ,sapphire stnd
#MEASMODE:             ,Standard Expansion
#PURGE GAS 1:          ,ARGON
#FLOW RATE 1 /(ml/min):,75
#M.RANGE /µm:          ,500
#CORR. CODE:           ,010
#RANGE:                ,20.0°C/3.0(K/min)/1000.0°C
#SEGMENT:              ,S1/1
#SEG. 1:               ,20.0°C/3.0(K/min)/1000.0°C

##Temp./°C,Time/min,dL/Lo
  21.54300,  0.00000, 1.5723e-005
  25.04300,  5.39113,-3.2579e-005
  28.54300,  6.28677,-5.3729e-005
  32.04300,  7.05883,-6.0698e-005
  35.54300,  7.79333,-5.6972e-005
  39.04300,  8.52310,-4.2732e-005
  42.54300,  9.24738,-2.2645e-005
  46.04300,  9.95898, 7.5865e-008
  49.54300, 10.65471, 2.4487e-005
  53.04300, 11.33193, 4.9630e-005
  56.54300, 11.99902, 7.7725e-005
  60.04300, 12.65875, 1.0834e-004
  63.54300, 13.31881, 1.4100e-004
  67.04300, 13.97919, 1.7590e-004
  70.54300, 14.64258, 2.1282e-004
  74.04300, 15.30720, 2.4997e-004
  77.54300, 15.97482, 2.8930e-004
  81.04300, 16.64428, 3.2913e-004
  84.54300, 17.32150, 3.6970e-004
  88.04300, 18.00074, 4.1153e-004
  91.54300, 18.68553, 4.5405e-004
  95.04300, 19.37436, 4.9710e-004
  98.54300, 20.07070, 5.4054e-004
 102.043, 20.76820, 5.8441e-004
 105.543, 21.46933, 6.2844e-004
 109.043, 22.17465, 6.7276e-004
 112.543, 22.88410, 7.1751e-004
 116.043, 23.59893, 7.6215e-004
 119.543, 24.31649, 8.0718e-004
 123.043, 25.03653, 8.5215e-004
 126.543, 25.76033, 8.9766e-004
 130.043, 26.48660, 9.4320e-004
 133.543, 27.21543, 9.8885e-004
 137.043, 27.94957, 1.0348e-003
 140.543, 28.68795, 1.0806e-003
 144.043, 29.42603, 1.1272e-003
 147.543, 30.16673, 1.1736e-003
 151.043, 30.91295, 1.2202e-003
 154.543, 31.66361, 1.2670e-003
 158.043, 32.41333, 1.3143e-003
 161.543, 33.16860, 1.3611e-003
 165.043, 33.92700, 1.4082e-003
 168.543, 34.68752, 1.4550e-003
 172.043, 35.45214, 1.5022e-003
 175.543, 36.22101, 1.5502e-003
 179.043, 36.99006, 1.5977e-003
 182.543, 37.76333, 1.6448e-003
 186.043, 38.54037, 1.6923e-003
 189.543, 39.31853, 1.7398e-003
 193.043, 40.10000, 1.7872e-003
 196.543, 40.88334, 1.8350e-003
 200.043, 41.67307, 1.8825e-003
 203.543, 42.46561, 1.9301e-003
 207.043, 43.26248, 1.9775e-003
 210.543, 44.06249, 2.0251e-003
 214.043, 44.86382, 2.0727e-003
 217.543, 45.66954, 2.1208e-003
 221.043, 46.47885, 2.1682e-003
 224.543, 47.29348, 2.2158e-003
 228.043, 48.11025, 2.2635e-003
 231.543, 48.93097, 2.3115e-003
 235.043, 49.75567, 2.3591e-003
 238.543, 50.58297, 2.4072e-003
 242.043, 51.41321, 2.4548e-003
 245.543, 52.24816, 2.5033e-003
 249.043, 53.08760, 2.5508e-003
 252.543, 53.93058, 2.5987e-003
 256.043, 54.77727, 2.6468e-003
 259.543, 55.62832, 2.6946e-003
 263.043, 56.48282, 2.7419e-003
 266.543, 57.33947, 2.7894e-003
 270.043, 58.20140, 2.8375e-003
 273.543, 59.06918, 2.8849e-003
 277.043, 59.94023, 2.9337e-003
 280.543, 60.81811, 2.9810e-003
 284.043, 61.69638, 3.0283e-003
 287.543, 62.57511, 3.0759e-003
 291.043, 63.46040, 3.1231e-003
 294.543, 64.34933, 3.1714e-003
 298.043, 65.24609, 3.2207e-003
 301.543, 66.14616, 3.2692e-003
 305.043, 67.04937, 3.3171e-003
 308.543, 67.95425, 3.3644e-003
 312.043, 68.86419, 3.4125e-003
 315.543, 69.77814, 3.4611e-003
 319.043, 70.69884, 3.5084e-003
 322.543, 71.62552, 3.5557e-003
 326.043, 72.54973, 3.6036e-003
 329.543, 73.48159, 3.6510e-003
 333.043, 74.41649, 3.6993e-003
 336.543, 75.35753, 3.7473e-003
 340.043, 76.29881, 3.7936e-003
 343.543, 77.24407, 3.8415e-003
 347.043, 78.19405, 3.8888e-003
 350.543, 79.14853, 3.9376e-003
 354.043, 80.10617, 3.9837e-003
 357.543, 81.07063, 4.0312e-003
 361.043, 82.04063, 4.0790e-003
 364.543, 83.01205, 4.1269e-003
 368.043, 83.98760, 4.1750e-003
 371.543, 84.96682, 4.2235e-003
 375.043, 85.94799, 4.2705e-003
 378.543, 86.93223, 4.3191e-003
 382.043, 87.92174, 4.3677e-003
 385.543, 88.91739, 4.4165e-003
 389.043, 89.91398, 4.4770e-003
 392.543, 90.91630, 4.5248e-003
 396.043, 91.92296, 4.5727e-003
 399.543, 92.93259, 4.6198e-003
 403.043, 93.94653, 4.6670e-003
 406.543, 94.96767, 4.7162e-003
 410.043, 95.99029, 4.7638e-003
 413.543, 97.01910, 4.8107e-003
 417.043, 98.04808, 4.8580e-003
 420.543, 99.08041, 4.9051e-003
 424.043,100.115, 4.9527e-003
 427.543,101.159, 5.0012e-003
 431.043,102.21, 5.0490e-003
 434.543,103.257, 5.0971e-003
 438.043,104.309, 5.1450e-003
 441.543,105.369, 5.1939e-003
 445.043,106.431, 5.2436e-003
 448.543,107.498, 5.2912e-003
 452.043,108.567, 5.3405e-003
 455.543,109.642, 5.3897e-003
 459.043,110.726, 5.4393e-003
 462.543,111.828, 5.4919e-003
 466.043,112.922, 5.5399e-003
 469.543,113.98, 5.5846e-003
 473.043,115.025, 5.6302e-003
 476.543,116.072, 5.6776e-003
 480.043,117.14, 5.7256e-003
 483.543,118.217, 5.7728e-003
 487.043,119.309, 5.8218e-003
 490.543,120.413, 5.8699e-003
 494.043,121.521, 5.9174e-003
 497.543,122.639, 5.9663e-003
 501.043,123.765, 6.0154e-003
 504.543,124.897, 6.0632e-003
 508.043,126.03, 6.1107e-003
 511.543,127.173, 6.1602e-003
 515.043,128.316, 6.2082e-003
 518.543,129.466, 6.2567e-003
 522.043,130.615, 6.3046e-003
 525.543,131.766, 6.3542e-003
 529.043,132.918, 6.4035e-003
 532.543,134.079, 6.4523e-003
 536.043,135.244, 6.5012e-003
 539.543,136.406, 6.5497e-003
 543.043,137.573, 6.6009e-003
 546.543,138.741, 6.6503e-003
 550.043,139.918, 6.7004e-003
 553.543,141.097, 6.7486e-003
 557.043,142.278, 6.7960e-003
 560.543,143.458, 6.8437e-003
 564.043,144.645, 6.8913e-003
 567.543,145.836, 6.9391e-003
 571.043,147.029, 6.9856e-003
 574.543,148.227, 7.0329e-003
 578.043,149.426, 7.0798e-003
 581.543,150.642, 7.1304e-003
 585.043,151.879, 7.1811e-003
 588.543,153.101, 7.2281e-003
 592.043,154.278, 7.2710e-003
 595.543,155.44, 7.3166e-003
 599.043,156.617, 7.3624e-003
 602.543,157.811, 7.4113e-003
 606.043,159.017, 7.4589e-003
 609.543,160.232, 7.5064e-003
 613.043,161.455, 7.5534e-003
 616.543,162.683, 7.6000e-003
 620.043,163.919, 7.6477e-003
 623.543,165.161, 7.6966e-003
 627.043,166.411, 7.7436e-003
 630.543,167.659, 7.7907e-003
 634.043,168.911, 7.8399e-003
 637.543,170.165, 7.8871e-003
 641.043,171.424, 7.9346e-003
 644.543,172.684, 7.9815e-003
 648.043,173.95, 8.0287e-003
 651.543,175.215, 8.0756e-003
 655.043,176.479, 8.1212e-003
 658.543,177.752, 8.1680e-003
 662.043,179.025, 8.2145e-003
 665.543,180.3, 8.2599e-003
 669.043,181.581, 8.3069e-003
 672.543,182.872, 8.3541e-003
 676.043,184.177, 8.4031e-003
 679.543,185.51, 8.4533e-003
 683.043,186.822, 8.4984e-003
 686.543,188.097, 8.5423e-003
 690.043,189.369, 8.5880e-003
 693.543,190.66, 8.6336e-003
 697.043,191.965, 8.6798e-003
 700.543,193.277, 8.7252e-003
 704.043,194.598, 8.7705e-003
 707.543,195.92, 8.8142e-003
 711.043,197.247, 8.8611e-003
 714.543,198.578, 8.9072e-003
 718.043,199.938, 8.9580e-003
 721.543,201.318, 9.0068e-003
 725.043,202.646, 9.0516e-003
 728.543,203.943, 9.0972e-003
 732.043,205.246, 9.1439e-003
 735.543,206.56, 9.1896e-003
 739.043,207.879, 9.2355e-003
 742.543,209.212, 9.2825e-003
 746.043,210.548, 9.3295e-003
 749.543,211.891, 9.3746e-003
 753.043,213.24, 9.4223e-003
 756.543,214.589, 9.4694e-003
 760.043,215.94, 9.5153e-003
 763.543,217.292, 9.5613e-003
 767.043,218.643, 9.6082e-003
 770.543,220.002, 9.6544e-003
 774.043,221.359, 9.7013e-003
 777.543,222.711, 9.7467e-003
 781.043,224.071, 9.7932e-003
 784.543,225.507, 9.8433e-003
 788.043,227.044, 9.8948e-003
 791.543,228.558, 9.9396e-003
 795.043,229.967, 9.9841e-003
 798.543,231.424, 1.0031e-002
 802.043,232.905, 1.0075e-002
 805.543,234.375, 1.0120e-002
 809.043,235.841, 1.0162e-002
 812.543,237.254, 1.0204e-002
 816.043,238.656, 1.0248e-002
 819.543,240.068, 1.0290e-002
 823.043,241.472, 1.0332e-002
 826.543,242.846, 1.0376e-002
 830.043,244.219, 1.0419e-002
 833.543,245.574, 1.0464e-002
 837.043,246.935, 1.0506e-002
 840.543,248.282, 1.0551e-002
 844.043,249.643, 1.0597e-002
 847.543,251.005, 1.0644e-002
 851.043,252.413, 1.0691e-002
 854.543,253.765, 1.0734e-002
 858.043,255.092, 1.0777e-002
 861.543,256.417, 1.0821e-002
 865.043,257.746, 1.0864e-002
 868.543,259.079, 1.0908e-002
 872.043,260.417, 1.0951e-002
 875.543,261.775, 1.0994e-002
 879.043,263.149, 1.1038e-002
 882.543,264.544, 1.1084e-002
 886.043,265.956, 1.1129e-002
 889.543,267.354, 1.1171e-002
 893.043,268.746, 1.1217e-002
 896.543,270.149, 1.1263e-002
 900.043,271.555, 1.1310e-002
 903.543,273.03, 1.1358e-002
 907.043,274.54, 1.1408e-002
 910.543,276.105, 1.1456e-002
 914.043,278.018, 1.1505e-002
 917.543,279.496, 1.1543e-002
 921.043,280.851, 1.1585e-002
 924.543,282.234, 1.1629e-002
 928.043,283.63, 1.1671e-002
 931.543,285.019, 1.1714e-002
 935.043,286.395, 1.1759e-002
 938.543,287.742, 1.1804e-002
 942.043,289.087, 1.1847e-002
 945.543,290.421, 1.1892e-002
 949.043,291.796, 1.1939e-002
 952.543,293.157, 1.1981e-002
 956.043,294.415, 1.2025e-002
 959.543,295.802, 1.2070e-002
 963.043,297.052, 1.2109e-002
 966.543,298.306, 1.2153e-002
 970.043,299.659, 1.2199e-002
 973.543,300.988, 1.2239e-002
 977.043,302.2, 1.2283e-002
 980.543,303.511, 1.2325e-002
 984.043,304.798, 1.2366e-002
 987.543,306.118, 1.2407e-002
 991.043,307.394, 1.2448e-002
 994.543,308.703, 1.2492e-002
 998.043,310.04, 1.2538e-002
1001.54,311.477, 1.2584e-002
1005.04,312.793, 1.2625e-002
1008.54,314.047, 1.2664e-002
1012.04,315.319, 1.2707e-002
1015.54,316.586, 1.2746e-002
1019.04,317.914, 1.2790e-002
1019.54,318.106, 1.2797e-002