File: data/8.1mm/fmt100sBr1-10.3mm.csv
#EXPORTTYPE:           ,DATA ALL
#FILE:                 ,fmtl100Brun1.ngb-sle
#FORMAT:               ,NETZSCH5
#FTYPE:                ,ANSI
#IDENTITY:             ,fmt tall
#DECIMAL:              ,POINT
#SEPARATOR:            ,COMMA
#MTYPE:                ,DIL
#INSTRUMENT:           ,NETZSCH DIL 402C
#PROJECT:              ,feldspar
#DATE/TIME:            ,8/17/2019 10:32:42 AM (UTC-5)
#CORR. FILE:           ,
#TEMPCAL:              ,TCALZERO.TMX
#LABORATORY:           ,Mineral Physics
#OPERATOR:             ,PAG
#REMARK:               ,bare, norm start, for oligoclase fmt tall
#SAMPLE:               ,fmt100B
#SAMPLE LENGTH /mm:    ,10.259
#MATERIAL:             ,sapphire stnd
#MEASMODE:             ,Standard Expansion
#PURGE GAS 1:          ,ARGON
#FLOW RATE 1 /(ml/min):,75
#M.RANGE /µm:          ,500
#CORR. CODE:           ,010
#RANGE:                ,20.0°C/3.0(K/min)/1000.0°C
#SEGMENT:              ,S1/1
#SEG. 1:               ,20.0°C/3.0(K/min)/1000.0°C

##Temp./°C,Time/min,dL/Lo
 21.96200,  0.00000, 1.8752e-005
 23.46200,  4.83690,-8.0046e-006
 24.96200,  5.39636,-2.5506e-005
 26.46200,  5.82779,-3.9614e-005
 27.96200,  6.20229,-5.0725e-005
 29.46200,  6.54625,-5.9303e-005
 30.96200,  6.87380,-6.4798e-005
 32.46200,  7.19186,-6.8593e-005
 33.96200,  7.50478,-7.0379e-005
 35.46200,  7.81533,-7.0148e-005
 36.96200,  8.12431,-6.7562e-005
 38.46200,  8.43275,-6.3449e-005
 39.96200,  8.74080,-5.8504e-005
 41.46200,  9.04845,-5.2980e-005
 42.96200,  9.35468,-4.5992e-005
 44.46200,  9.65876,-3.8703e-005
 45.96200,  9.96061,-3.0841e-005
 47.46200, 10.25939,-2.3144e-005
 48.96200, 10.55461,-1.5101e-005
 50.46200, 10.84705,-6.3478e-006
 51.96200, 11.13749, 2.9519e-006
 53.46200, 11.42490, 1.2278e-005
 54.96200, 11.71031, 2.1804e-005
 56.46200, 11.99486, 3.2118e-005
 57.96200, 12.27817, 4.3044e-005
 59.46200, 12.55984, 5.4131e-005
 60.96200, 12.84116, 6.5324e-005
 62.46200, 13.12255, 7.7185e-005
 63.96200, 13.40397, 8.9281e-005
 65.46200, 13.68494, 1.0190e-004
 66.96200, 13.96625, 1.1499e-004
 68.46200, 14.24933, 1.2849e-004
 69.96200, 14.53328, 1.4161e-004
 71.46200, 14.81669, 1.5580e-004
 72.96200, 15.10029, 1.6923e-004
 74.46200, 15.38460, 1.8367e-004
 75.96200, 15.67013, 1.9835e-004
 77.46200, 15.95616, 2.1319e-004
 78.96200, 16.24251, 2.2796e-004
 80.46200, 16.52976, 2.4305e-004
 81.96200, 16.81872, 2.5770e-004
 83.46200, 17.10905, 2.7346e-004
 84.96200, 17.39936, 2.8872e-004
 86.46200, 17.69011, 3.0407e-004
 87.96200, 17.98111, 3.1982e-004
 89.46200, 18.27310, 3.3584e-004
 90.96200, 18.56670, 3.5141e-004
 92.46200, 18.86075, 3.6736e-004
 93.96200, 19.15553, 3.8341e-004
 95.46200, 19.45178, 3.9955e-004
 96.96200, 19.74848, 4.1589e-004
 98.46200, 20.04687, 4.3217e-004
 99.96200, 20.34639, 4.4848e-004
101.462, 20.64656, 4.6485e-004
102.962, 20.94674, 4.8124e-004
104.462, 21.24639, 4.9787e-004
105.962, 21.54657, 5.1397e-004
107.462, 21.84861, 5.3062e-004
108.962, 22.15245, 5.4661e-004
110.462, 22.45756, 5.6387e-004
111.962, 22.76255, 5.8010e-004
113.462, 23.06807, 5.9697e-004
114.962, 23.37410, 6.1411e-004
116.462, 23.68041, 6.3038e-004
117.962, 23.98709, 6.4722e-004
119.462, 24.29473, 6.6340e-004
120.962, 24.60319, 6.8004e-004
122.462, 24.91212, 6.9649e-004
123.962, 25.22074, 7.1338e-004
125.462, 25.53075, 7.3031e-004
126.962, 25.84196, 7.4685e-004
128.462, 26.15386, 7.6366e-004
129.962, 26.46572, 7.8025e-004
131.462, 26.77782, 7.9687e-004
132.962, 27.09086, 8.1320e-004
134.462, 27.40475, 8.3042e-004
135.962, 27.71973, 8.4698e-004
137.462, 28.03542, 8.6412e-004
138.962, 28.35148, 8.8079e-004
140.462, 28.66794, 8.9724e-004
141.962, 28.98530, 9.1418e-004
143.462, 29.30314, 9.3039e-004
144.962, 29.62091, 9.4767e-004
146.462, 29.93879, 9.6410e-004
147.962, 30.25764, 9.8054e-004
149.462, 30.57713, 9.9702e-004
150.962, 30.89572, 1.0142e-003
152.462, 31.21423, 1.0306e-003
153.962, 31.53469, 1.0471e-003
155.462, 31.85667, 1.0635e-003
156.962, 32.17884, 1.0798e-003
158.462, 32.50149, 1.0961e-003
159.962, 32.82493, 1.1123e-003
161.462, 33.14933, 1.1286e-003
162.962, 33.47381, 1.1449e-003
164.462, 33.79845, 1.1617e-003
165.962, 34.12380, 1.1781e-003
167.462, 34.44950, 1.1944e-003
168.962, 34.77515, 1.2107e-003
170.462, 35.10137, 1.2271e-003
171.962, 35.42908, 1.2435e-003
173.462, 35.75758, 1.2588e-003
174.962, 36.08649, 1.2761e-003
176.462, 36.41589, 1.2928e-003
177.962, 36.74637, 1.3077e-003
179.462, 37.07854, 1.3241e-003
180.962, 37.41121, 1.3408e-003
182.462, 37.74340, 1.3560e-003
183.962, 38.07593, 1.3735e-003
185.462, 38.40905, 1.3909e-003
186.962, 38.74256, 1.4063e-003
188.462, 39.07721, 1.4223e-003
189.962, 39.41253, 1.4395e-003
191.462, 39.74779, 1.4564e-003
192.962, 40.08319, 1.4742e-003
194.462, 40.41881, 1.4916e-003
195.962, 40.75445, 1.5086e-003
197.462, 41.09055, 1.5270e-003
198.962, 41.42812, 1.5438e-003
200.462, 41.76740, 1.5627e-003
201.962, 42.10779, 1.5814e-003
203.462, 42.44862, 1.6006e-003
204.962, 42.78982, 1.6211e-003
206.462, 43.13137, 1.6420e-003
207.962, 43.47241, 1.6628e-003
209.462, 43.81369, 1.6829e-003
210.962, 44.15662, 1.7046e-003
212.462, 44.50056, 1.7258e-003
213.962, 44.84511, 1.7477e-003
215.462, 45.18892, 1.7696e-003
216.962, 45.53257, 1.7920e-003
218.462, 45.87812, 1.8139e-003
219.962, 46.22567, 1.8368e-003
221.462, 46.57307, 1.8596e-003
222.962, 46.92004, 1.8833e-003
224.462, 47.26762, 1.9072e-003
225.962, 47.61663, 1.9308e-003
227.462, 47.96620, 1.9544e-003
228.962, 48.31610, 1.9784e-003
230.462, 48.66663, 2.0018e-003
231.962, 49.01761, 2.0255e-003
233.462, 49.36942, 2.0496e-003
234.962, 49.72171, 2.0731e-003
236.462, 50.07432, 2.0971e-003
237.962, 50.42757, 2.1212e-003
239.462, 50.78156, 2.1455e-003
240.962, 51.13702, 2.1700e-003
242.462, 51.49384, 2.1942e-003
243.962, 51.85115, 2.2181e-003
245.462, 52.20788, 2.2425e-003
246.962, 52.56471, 2.2668e-003
248.462, 52.92280, 2.2907e-003
249.962, 53.28184, 2.3147e-003
251.462, 53.64176, 2.3390e-003
252.962, 54.00231, 2.3624e-003
254.462, 54.36397, 2.3856e-003
255.962, 54.72651, 2.4092e-003
257.462, 55.09044, 2.4330e-003
258.962, 55.45463, 2.4573e-003
260.462, 55.81834, 2.4814e-003
261.962, 56.18360, 2.5055e-003
263.462, 56.54966, 2.5297e-003
264.962, 56.91623, 2.5533e-003
266.462, 57.28341, 2.5772e-003
267.962, 57.65108, 2.6009e-003
269.462, 58.02035, 2.6250e-003
270.962, 58.39077, 2.6482e-003
272.462, 58.76027, 2.6718e-003
273.962, 59.13042, 2.6961e-003
275.462, 59.50245, 2.7195e-003
276.962, 59.87501, 2.7437e-003
278.462, 60.24796, 2.7673e-003
279.962, 60.62219, 2.7914e-003
281.462, 60.99716, 2.8151e-003
282.962, 61.37199, 2.8392e-003
284.462, 61.74884, 2.8626e-003
285.962, 62.12713, 2.8861e-003
287.462, 62.50600, 2.9097e-003
288.962, 62.88572, 2.9335e-003
290.462, 63.26567, 2.9567e-003
291.962, 63.64624, 2.9803e-003
293.462, 64.02794, 3.0033e-003
294.962, 64.40967, 3.0268e-003
296.462, 64.79094, 3.0503e-003
297.962, 65.17315, 3.0733e-003
299.462, 65.55724, 3.0966e-003
300.962, 65.94284, 3.1198e-003
302.462, 66.32909, 3.1436e-003
303.962, 66.71535, 3.1665e-003
305.462, 67.10184, 3.1893e-003
306.962, 67.48923, 3.2128e-003
308.462, 67.87736, 3.2350e-003
309.962, 68.26593, 3.2578e-003
311.462, 68.65503, 3.2802e-003
312.962, 69.04564, 3.3017e-003
314.462, 69.43727, 3.3237e-003
315.962, 69.82879, 3.3451e-003
317.462, 70.22158, 3.3646e-003
318.962, 70.61665, 3.3854e-003
320.462, 71.01154, 3.4057e-003
321.962, 71.40714, 3.4263e-003
323.462, 71.80426, 3.4472e-003
324.962, 72.20101, 3.4695e-003
326.462, 72.59878, 3.4908e-003
327.962, 72.99783, 3.5115e-003
329.462, 73.39670, 3.5330e-003
330.962, 73.79642, 3.5531e-003
332.462, 74.19762, 3.5744e-003
333.962, 74.59807, 3.5952e-003
335.462, 74.99991, 3.6148e-003
336.962, 75.40217, 3.6360e-003
338.462, 75.80629, 3.6558e-003
339.962, 76.21391, 3.6755e-003
341.462, 76.62388, 3.6953e-003
342.962, 77.03361, 3.7158e-003
344.462, 77.44439, 3.7364e-003
345.962, 77.85724, 3.7567e-003
347.462, 78.27075, 3.7784e-003
348.962, 78.68137, 3.7973e-003
350.462, 79.08919, 3.8158e-003
351.962, 79.49455, 3.8333e-003
353.462, 79.89496, 3.8500e-003
354.962, 80.29081, 3.8674e-003
356.462, 80.68394, 3.8845e-003
357.962, 81.07683, 3.9025e-003
359.462, 81.47025, 3.9198e-003
360.962, 81.86567, 3.9373e-003
362.462, 82.26318, 3.9552e-003
363.962, 82.66251, 3.9725e-003
365.462, 83.06373, 3.9909e-003
366.962, 83.46779, 4.0088e-003
368.462, 83.87428, 4.0264e-003
369.962, 84.28218, 4.0447e-003
371.462, 84.69253, 4.0628e-003
372.962, 85.10467, 4.0813e-003
374.462, 85.51917, 4.0991e-003
375.962, 85.93630, 4.1179e-003
377.462, 86.35383, 4.1360e-003
378.962, 86.77124, 4.1546e-003
380.462, 87.19052, 4.1704e-003
381.962, 87.61082, 4.1879e-003
383.462, 88.03351, 4.2066e-003
384.962, 88.45949, 4.2129e-003
386.462, 88.88757, 4.2354e-003
387.962, 89.31550, 4.2548e-003
389.462, 89.74507, 4.2731e-003
390.962, 90.17540, 4.2921e-003
392.462, 90.60776, 4.3107e-003
393.962, 91.04021, 4.3281e-003
395.462, 91.47260, 4.3463e-003
396.962, 91.90725, 4.3650e-003
398.462, 92.34197, 4.3797e-003
399.962, 92.77770, 4.3984e-003
401.462, 93.21451, 4.4171e-003
402.962, 93.65249, 4.4357e-003
404.462, 94.09057, 4.4541e-003
405.962, 94.52874, 4.4711e-003
407.462, 94.96989, 4.4900e-003
408.962, 95.41175, 4.5091e-003
410.462, 95.85571, 4.5256e-003
411.962, 96.29875, 4.5442e-003
413.462, 96.74083, 4.5627e-003
414.962, 97.18484, 4.5806e-003
416.462, 97.62933, 4.5998e-003
417.962, 98.07324, 4.6164e-003
419.462, 98.51867, 4.6341e-003
420.962, 98.96423, 4.6529e-003
422.462, 99.41019, 4.6704e-003
423.962, 99.85719, 4.6878e-003
425.462,100.304, 4.7075e-003
426.962,100.753, 4.7254e-003
428.462,101.202, 4.7427e-003
429.962,101.652, 4.7620e-003
430.962,101.952, 4.7192e-003