File: data/8.1mm/oligHawk010s1r3-8.25mm.csv
#EXPORTTYPE:           ,DATA ALL
#FILE:                 ,oligHawk010s1r3.ngb-sle
#FORMAT:               ,NETZSCH5
#FTYPE:                ,ANSI
#IDENTITY:             ,oligioclase
#DECIMAL:              ,POINT
#SEPARATOR:            ,COMMA
#MTYPE:                ,DIL
#INSTRUMENT:           ,NETZSCH DIL 402C
#PROJECT:              ,feldspar
#DATE/TIME:            ,8/24/2019 10:12:59 AM (UTC-5)
#CORR. FILE:           ,
#TEMPCAL:              ,TCALZERO.TMX
#LABORATORY:           ,Mineral Physics
#OPERATOR:             ,PAG
#REMARK:               ,bare, norm start, for short plageioclase, sapphire, same crystal as 001
#SAMPLE:               ,hawk mine 010
#SAMPLE LENGTH /mm:    ,8.25
#MATERIAL:             ,sapphire stnd
#MEASMODE:             ,Standard Expansion
#PURGE GAS 1:          ,ARGON
#FLOW RATE 1 /(ml/min):,75
#M.RANGE /µm:          ,500
#CORR. CODE:           ,010
#RANGE:                ,20.0°C/3.0(K/min)/1010.0°C
#SEGMENT:              ,S1/1
#SEG. 1:               ,20.0°C/3.0(K/min)/1010.0°C

##Temp./°C,Time/min,dL/Lo,Alpha/(1/K)
  21.53000,  0.00000, 1.5194e-005, 5.4781e-006
  26.03000,  5.72085,-4.7754e-005,-9.5705e-006
  30.53000,  6.78610,-7.3331e-005,-2.5149e-006
  35.03000,  7.74461,-7.1011e-005, 3.0142e-006
  39.53000,  8.69064,-5.0689e-005, 5.9394e-006
  44.03000,  9.62129,-1.8993e-005, 7.3921e-006
  48.53000, 10.52471, 1.8572e-005, 8.4312e-006
  53.03000, 11.40098, 5.8891e-005, 9.4505e-006
  57.53000, 12.26026, 1.0342e-004, 1.0535e-005
  62.03000, 13.11130, 1.5433e-004, 1.1892e-005
  66.53000, 13.95970, 2.1029e-004, 1.2850e-005
  71.03000, 14.81171, 2.6887e-004, 1.2874e-005
  75.53000, 15.66734, 3.2801e-004, 1.3141e-005
  80.03000, 16.52748, 3.8815e-004, 1.3704e-005
  84.53000, 17.39455, 4.5048e-004, 1.3750e-005
  89.03000, 18.26952, 5.1355e-004, 1.3933e-005
  93.53000, 19.15269, 5.7795e-004, 1.4765e-005
  98.03000, 20.04388, 6.4334e-004, 1.4615e-005
 102.53, 20.94135, 7.0921e-004, 1.4759e-005
 107.03, 21.84534, 7.7504e-004, 1.4629e-005
 111.53, 22.75698, 8.4155e-004, 1.4860e-005
 116.03, 23.67591, 9.0879e-004, 1.5190e-005
 120.53, 24.59949, 9.7719e-004, 1.4599e-005
 125.03, 25.52736, 1.0445e-003, 1.5011e-005
 129.53, 26.46072, 1.1127e-003, 1.4840e-005
 134.03, 27.40076, 1.1814e-003, 1.5436e-005
 138.53, 28.34504, 1.2494e-003, 1.5242e-005
 143.03, 29.29540, 1.3174e-003, 1.5230e-005
 147.53, 30.25382, 1.3843e-003, 1.4920e-005
 152.03, 31.21504, 1.4498e-003, 1.4260e-005
 156.53, 32.18083, 1.5136e-003, 1.3738e-005
 161.03, 33.14870, 1.5745e-003, 1.3373e-005
 165.53, 34.12209, 1.6324e-003, 1.1586e-005
 170.03, 35.09988, 1.6824e-003, 9.7278e-006
 174.53, 36.08602, 1.7270e-003, 1.1081e-005
 179.03, 37.07488, 1.7829e-003, 1.4387e-005
 183.53, 38.06942, 1.8499e-003, 1.5122e-005
 188.03, 39.06968, 1.9184e-003, 1.5524e-005
 192.53, 40.07376, 1.9885e-003, 1.5268e-005
 197.03, 41.08302, 2.0589e-003, 1.5407e-005
 201.53, 42.09798, 2.1299e-003, 1.6218e-005
 206.03, 43.12191, 2.2006e-003, 1.5864e-005
 210.53, 44.15022, 2.2717e-003, 1.5009e-005
 215.03, 45.18045, 2.3427e-003, 1.5228e-005
 219.53, 46.21945, 2.4136e-003, 1.5782e-005
 224.03, 47.26334, 2.4848e-003, 1.6203e-005
 228.53, 48.31520, 2.5569e-003, 1.6339e-005
 233.03, 49.37203, 2.6276e-003, 1.6081e-005
 237.53, 50.43517, 2.7005e-003, 1.6175e-005
 242.03, 51.50453, 2.7729e-003, 1.6480e-005
 246.53, 52.57806, 2.8456e-003, 1.6063e-005
 251.03, 53.65832, 2.9176e-003, 1.5284e-005
 255.53, 54.74585, 2.9898e-003, 1.6066e-005
 260.03, 55.83694, 3.0621e-003, 1.5563e-005
 264.53, 56.93576, 3.1345e-003, 1.6224e-005
 269.03, 58.04236, 3.2061e-003, 1.6375e-005
 273.53, 59.15478, 3.2781e-003, 1.6574e-005
 278.03, 60.27271, 3.3504e-003, 1.6474e-005
 282.53, 61.39781, 3.4215e-003, 1.5606e-005
 287.03, 62.53184, 3.4937e-003, 1.5837e-005
 291.53, 63.66990, 3.5646e-003, 1.4938e-005
 296.03, 64.81387, 3.6338e-003, 1.5852e-005
 300.53, 65.96597, 3.7059e-003, 1.5299e-005
 305.03, 67.12354, 3.7763e-003, 1.5344e-005
 309.53, 68.29166, 3.8468e-003, 1.6398e-005
 314.03, 69.46372, 3.9172e-003, 1.5435e-005
 318.53, 70.64291, 3.9873e-003, 1.5443e-005
 323.03, 71.83016, 4.0571e-003, 1.4964e-005
 327.53, 73.02511, 4.1267e-003, 1.5262e-005
 332.03, 74.22549, 4.1967e-003, 1.4624e-005
 336.53, 75.43425, 4.2609e-003, 1.4028e-005
 341.03, 76.64545, 4.3294e-003, 1.5236e-005
 345.53, 77.86483, 4.3997e-003, 1.5266e-005
 350.03, 79.09138, 4.4706e-003, 1.5448e-005
 354.53, 80.32319, 4.5408e-003, 1.5799e-005
 359.03, 81.56160, 4.6099e-003, 1.5771e-005
 363.53, 82.80762, 4.6797e-003, 1.4665e-005
 368.03, 84.06099, 4.7488e-003, 1.4923e-005
 372.53, 85.31987, 4.8159e-003, 1.5010e-005
 377.03, 86.58208, 4.8822e-003, 1.4385e-005
 381.53, 87.85160, 4.9488e-003, 1.4680e-005
 386.03, 89.13047, 5.0163e-003, 1.5559e-005
 390.53, 90.41565, 5.0846e-003, 1.4613e-005
 395.03, 91.70653, 5.1526e-003, 1.5637e-005
 399.53, 93.00716, 5.2207e-003, 1.4620e-005
 404.03, 94.31382, 5.2885e-003, 1.5716e-005
 408.53, 95.62407, 5.3577e-003, 1.5300e-005
 413.03, 96.94237, 5.4272e-003, 1.5590e-005
 417.53, 98.26865, 5.4958e-003, 1.5454e-005
 422.03, 99.59960, 5.5642e-003, 1.4393e-005
 426.53,100.935, 5.6325e-003, 1.5658e-005
 431.03,102.279, 5.7004e-003, 1.4522e-005
 435.53,103.63, 5.7691e-003, 1.5302e-005
 440.03,104.99, 5.8390e-003, 1.5566e-005
 444.53,106.367, 5.9131e-003, 1.5911e-005
 449.03,107.769, 5.9861e-003, 1.5041e-005
 453.53,109.134, 6.0514e-003, 1.3892e-005
 458.03,110.458, 6.1166e-003, 1.5189e-005
 462.53,111.786, 6.1844e-003, 1.5098e-005
 467.03,113.137, 6.2534e-003, 1.5134e-005
 471.53,114.503, 6.3215e-003, 1.5699e-005
 476.03,115.895, 6.3919e-003, 1.6045e-005
 480.53,117.299, 6.4617e-003, 1.4843e-005
 485.03,118.72, 6.5318e-003, 1.4581e-005
 489.53,120.151, 6.6017e-003, 1.4887e-005
 494.03,121.588, 6.6715e-003, 1.5909e-005
 498.53,123.03, 6.7414e-003, 1.4753e-005
 503.03,124.486, 6.8088e-003, 1.5146e-005
 507.53,125.945, 6.8795e-003, 1.5711e-005
 512.03,127.436, 6.9541e-003, 1.6720e-005
 516.53,128.931, 7.0240e-003, 1.4395e-005
 521.03,130.371, 7.0863e-003, 1.3279e-005
 525.53,131.775, 7.1496e-003, 1.5241e-005
 530.03,133.187, 7.2160e-003, 1.4628e-005
 534.53,134.629, 7.2838e-003, 1.4643e-005
 539.03,136.094, 7.3517e-003, 1.4595e-005
 543.53,137.577, 7.4205e-003, 1.5163e-005
 548.03,139.077, 7.4893e-003, 1.5200e-005
 552.53,140.587, 7.5580e-003, 1.5040e-005
 557.03,142.105, 7.6269e-003, 1.5009e-005
 561.53,143.629, 7.6967e-003, 1.5051e-005
 566.03,145.159, 7.7662e-003, 1.5977e-005
 570.53,146.701, 7.8351e-003, 1.5842e-005
 575.03,148.241, 7.9040e-003, 1.4864e-005
 579.53,149.789, 7.9732e-003, 1.5185e-005
 584.03,151.343, 8.0425e-003, 1.4803e-005
 588.53,152.896, 8.1118e-003, 1.5301e-005
 593.03,154.456, 8.1820e-003, 1.5753e-005
 597.53,156.014, 8.2507e-003, 1.5282e-005
 602.03,157.579, 8.3195e-003, 1.4761e-005
 606.53,159.151, 8.3885e-003, 1.5177e-005
 611.03,160.724, 8.4584e-003, 1.5638e-005
 615.53,162.323, 8.5296e-003, 1.6703e-005
 620.03,163.937, 8.6005e-003, 1.4766e-005
 624.53,165.497, 8.6657e-003, 1.6133e-005
 629.03,167.034, 8.7328e-003, 1.5422e-005
 633.53,168.592, 8.8013e-003, 1.4874e-005
 638.03,170.167, 8.8707e-003, 1.5430e-005
 642.53,171.762, 8.9414e-003, 1.5674e-005
 647.03,173.375, 9.0123e-003, 1.6052e-005
 651.53,174.992, 9.0826e-003, 1.5813e-005
 656.03,176.615, 9.1534e-003, 1.6100e-005
 660.53,178.247, 9.2238e-003, 1.6281e-005
 665.03,179.884, 9.2949e-003, 1.5560e-005
 669.53,181.531, 9.3660e-003, 1.5528e-005
 674.03,183.185, 9.4373e-003, 1.5749e-005
 678.53,184.836, 9.5089e-003, 1.5308e-005
 683.03,186.497, 9.5806e-003, 1.5852e-005
 687.53,188.172, 9.6514e-003, 1.5858e-005
 692.03,189.841, 9.7216e-003, 1.5733e-005
 696.53,191.556, 9.7979e-003, 1.6997e-005
 701.03,193.315, 9.8721e-003, 1.6200e-005
 705.53,195.012, 9.9398e-003, 1.5516e-005
 710.03,196.667, 1.0009e-002, 1.6096e-005
 714.53,198.334, 1.0078e-002, 1.4856e-005
 719.03,200.024, 1.0148e-002, 1.4537e-005
 723.53,201.718, 1.0218e-002, 1.5222e-005
 728.03,203.427, 1.0287e-002, 1.5073e-005
 732.53,205.14, 1.0355e-002, 1.4003e-005
 737.03,206.864, 1.0424e-002, 1.7089e-005
 741.53,208.592, 1.0493e-002, 1.5164e-005
 746.03,210.319, 1.0562e-002, 1.5100e-005
 750.53,212.048, 1.0631e-002, 1.4958e-005
 755.03,213.773, 1.0699e-002, 1.5340e-005
 759.53,215.512, 1.0769e-002, 1.5505e-005
 764.03,217.246, 1.0839e-002, 1.3920e-005
 768.53,219.008, 1.0912e-002, 1.6301e-005
 773.03,220.797, 1.0984e-002, 1.4901e-005
 777.53,222.506, 1.1050e-002, 1.6145e-005
 782.03,224.203, 1.1119e-002, 1.7799e-005
 786.53,225.927, 1.1190e-002, 1.4873e-005
 791.03,227.702, 1.1261e-002, 1.5551e-005
 795.53,229.55, 1.1333e-002, 1.5951e-005
 800.03,231.507, 1.1405e-002, 1.5434e-005
 804.53,233.387, 1.1477e-002, 1.5954e-005
 809.03,235.346, 1.1548e-002, 1.6350e-005
 813.53,237.262, 1.1617e-002, 1.7119e-005
 818.03,239.088, 1.1684e-002, 1.4904e-005
 822.53,240.915, 1.1753e-002, 1.4735e-005
 827.03,242.743, 1.1824e-002, 1.5380e-005
 831.53,244.589, 1.1894e-002, 1.5401e-005
 836.03,246.359, 1.1962e-002, 1.5225e-005
 840.53,248.063, 1.2028e-002, 1.6410e-005
 845.03,249.749, 1.2095e-002, 1.5274e-005
 849.53,251.454, 1.2164e-002, 1.4843e-005
 854.03,253.168, 1.2232e-002, 1.5256e-005
 858.53,254.89, 1.2299e-002, 1.5085e-005
 863.03,256.613, 1.2365e-002, 1.5686e-005
 867.53,258.351, 1.2434e-002, 1.5415e-005
 872.03,260.123, 1.2502e-002, 1.5643e-005
 876.53,261.95, 1.2572e-002, 1.6480e-005
 881.03,263.982, 1.2647e-002, 1.6056e-005
 885.53,265.857, 1.2714e-002, 1.5951e-005
 890.03,267.653, 1.2782e-002, 1.4839e-005
 894.53,269.431, 1.2848e-002, 1.4058e-005
 899.03,271.212, 1.2915e-002, 1.5086e-005
 903.53,273.039, 1.2982e-002, 1.4888e-005
 908.03,274.877, 1.3051e-002, 1.5111e-005
 912.53,276.833, 1.3121e-002, 1.5841e-005
 917.03,279.238, 1.3196e-002, 1.3264e-005
 921.53,281.059, 1.3256e-002, 1.6781e-005
 926.03,282.779, 1.3321e-002, 1.4252e-005
 930.53,284.53, 1.3392e-002, 1.4878e-005
 935.03,286.264, 1.3461e-002, 1.8195e-005
 939.53,288.14, 1.3528e-002, 1.2869e-005
 944.03,289.804, 1.3591e-002, 1.2029e-005
 948.53,291.45, 1.3662e-002, 1.5448e-005
 953.03,293.11, 1.3725e-002, 1.3630e-005
 957.53,294.808, 1.3792e-002, 1.4276e-005
 962.03,296.44, 1.3857e-002, 1.5973e-005
 966.53,298.173, 1.3927e-002, 1.4188e-005
 971.03,299.802, 1.3990e-002, 1.5134e-005
 975.53,301.436, 1.4060e-002, 1.6556e-005
 980.03,303.121, 1.4127e-002, 1.4114e-005
 984.53,304.771, 1.4198e-002, 1.5655e-005
 989.03,306.544, 1.4269e-002, 1.3634e-005
 993.53,308.172, 1.4336e-002, 1.4458e-005
 998.03,309.822, 1.4405e-002, 1.6240e-005
1002.53,311.404, 1.4468e-002, 1.5557e-005
1007.03,313.038, 1.4536e-002, 1.5287e-005
1011.53,314.693, 1.4602e-002, 1.4156e-005
1016.03,316.379, 1.4668e-002, 1.5556e-005
1020.53,318.08, 1.4736e-002, 1.4328e-005
1025.03,319.783, 1.4804e-002, 1.3762e-005
1029.53,321.509, 1.4872e-002, 1.8198e-005